%OpenBCI Raw EEG Data
%Number of channels = 8
%Sample Rate = 250 Hz
%Board = OpenBCI_GUI$BoardCytonSerial
Sample Index, EXG Channel 0, EXG Channel 1, EXG Channel 2, EXG Channel 3, EXG Channel 4, EXG Channel 5, EXG Channel 6, EXG Channel 7, Accel Channel 0, Accel Channel 1, Accel Channel 2, Other, Other, Other, Other, Other, Other, Other, Analog Channel 0, Analog Channel 1, Analog Channel 2, Timestamp, Other, Timestamp (Formatted)
0.0, 0.0, 0.0, 0.0, 0.0, 0.0, 0.0, 0.0, 0.0, -0.046, 1.006, 0.038, 192.0, 254.0, 144.0, 31.0, 112.0, 1.0, 48.0, 0.0, 0.0, 0.0, 1.6814199865028574E9, 0.0, 2023-04-13 17:06:26.502
1.0, 20914.259065897353, 23979.197320842424, 3325.9842784386015, -6685.406766582342, 15334.615449263509, 35067.65187593125, 50191.199802303294, -38664.874573335, -0.046, 1.006, 0.038, 192.0, 0.0, 0.0, 0.0, 0.0, 0.0, 0.0, 0.0, 0.0, 0.0, 1.6814199869902444E9, 0.0, 2023-04-13 17:06:26.990
2.0, 20747.000962138292, 23761.379571125457, 3374.8898953068133, -6661.691565715261, 15384.66100509894, 35114.769353243035, 50205.48256701024, -38604.301345861124, -0.046, 1.006, 0.038, 192.0, 0.0, 0.0, 0.0, 0.0, 0.0, 0.0, 0.0, 0.0, 0.0, 1.6814199869902933E9, 0.0, 2023-04-13 17:06:26.990
3.0, 20626.07802463508, 23570.540376966048, 3353.5663310964505, -6656.371850534899, 15407.325673976622, 35125.3417283704, 50183.98018884423, -38579.133281604445, -0.046, 1.006, 0.038, 192.0, 0.0, 0.0, 0.0, 0.0, 0.0, 0.0, 0.0, 0.0, 0.0, 1.6814199869903157E9, 0.0, 2023-04-13 17:06:26.990
4.0, 20723.95631360487, 23711.31166354557, 3324.173787137722, -6685.652635771351, 15377.642557339974, 35120.60315854587, 50139.07553423352, -38567.51037448768, -0.046, 1.006, 0.038, 192.0, 0.0, 0.0, 0.0, 0.0, 0.0, 0.0, 0.0, 0.0, 0.0, 1.6814199869903371E9, 0.0, 2023-04-13 17:06:26.990
5.0, 20912.42622285202, 24009.32747236818, 3364.3398719239085, -6714.173461696322, 15341.969173189304, 35132.673100551736, 50121.46235960274, -38540.97885381924, -0.046, 1.006, 0.038, 192.0, 0.0, 0.0, 0.0, 0.0, 0.0, 0.0, 0.0, 0.0, 0.0, 1.6814199869903588E9, 0.0, 2023-04-13 17:06:26.990
6.0, 20776.371154352564, 23854.921621670917, 3417.1793958162543, -6699.354255122454, 15374.960348005337, 35181.86929009787, 50135.141627209385, -38478.77394900012, -0.046, 1.006, 0.038, 192.0, 0.0, 0.0, 0.0, 0.0, 0.0, 0.0, 0.0, 0.0, 0.0, 1.6814199869903805E9, 0.0, 2023-04-13 17:06:26.990
7.0, 20619.50661176522, 23602.52572328159, 3380.9919215431123, -6659.299929058544, 15434.1924708119, 35172.25803998209, 50104.810309983535, -38474.9294489538, -0.046, 1.006, 0.038, 192.0, 0.0, 0.0, 0.0, 0.0, 0.0, 0.0, 0.0, 0.0, 0.0, 1.681419986990402E9, 0.0, 2023-04-13 17:06:26.990
8.0, 20685.71247884184, 23679.728648630222, 3348.0678019604447, -6691.2629236296325, 15384.593949865575, 35167.832394579935, 50066.29825428704, -38464.334722081985, -0.074, 1.018, 0.03, 192.0, 253.0, 176.0, 31.0, 208.0, 0.0, 240.0, 0.0, 0.0, 0.0, 1.6814199869904237E9, 0.0, 2023-04-13 17:06:26.990
9.0, 20904.75957450385, 23999.917387952493, 3372.006520272079, -6705.165708680834, 15340.471606310799, 35170.87223182586, 50029.41787593578, -38449.89549516386, -0.074, 1.018, 0.03, 192.0, 0.0, 0.0, 0.0, 0.0, 0.0, 0.0, 0.0, 0.0, 0.0, 1.6814199869904463E9, 0.0, 2023-04-13 17:06:26.990
10.0, 20824.20388748692, 23927.698901617397, 3436.53600651455, -6694.146298664367, 15343.869071468005, 35223.421183040286, 50048.68507965626, -38383.86844204288, -0.074, 1.018, 0.03, 192.0, 0.0, 0.0, 0.0, 0.0, 0.0, 0.0, 0.0, 0.0, 0.0, 1.681419986990468E9, 0.0, 2023-04-13 17:06:26.990
11.0, 20636.784510229172, 23649.68790408229, 3411.8596806358914, -6670.118173374913, 15389.08665050109, 35230.10435463242, 50031.250718981115, -38364.06479645548, -0.074, 1.018, 0.03, 192.0, 0.0, 0.0, 0.0, 0.0, 0.0, 0.0, 0.0, 0.0, 0.0, 1.6814199869904895E9, 0.0, 2023-04-13 17:06:26.990
12.0, 20651.08962668057, 23642.49064236768, 3359.8918747773023, -6662.920911660303, 15383.677528342907, 35203.52813047506, 49986.41311960377, -38377.0064564951, -0.074, 1.018, 0.03, 192.0, 0.0, 0.0, 0.0, 0.0, 0.0, 0.0, 0.0, 0.0, 0.0, 1.6814199869905112E9, 0.0, 2023-04-13 17:06:26.990
13.0, 20869.51087349783, 23967.909689892494, 3387.2727617350533, -6705.903316247859, 15311.637855963452, 35217.274453315076, 49967.503543794584, -38352.844220738916, -0.074, 1.018, 0.03, 192.0, 0.0, 0.0, 0.0, 0.0, 0.0, 0.0, 0.0, 0.0, 0.0, 1.6814199869905329E9, 0.0, 2023-04-13 17:06:26.990
14.0, 20836.98908531536, 23975.64339347403, 3453.9256637007793, -6710.686589561295, 15302.27247503668, 35269.30931440703, 49983.10506142439, -38289.72289439713, -0.074, 1.018, 0.03, 192.0, 0.0, 0.0, 0.0, 0.0, 0.0, 0.0, 0.0, 0.0, 0.0, 1.6814199869905543E9, 0.0, 2023-04-13 17:06:26.990
15.0, 20633.767024727706, 23673.24664273818, 3442.34746007293, -6671.168705364312, 15349.457007581832, 35279.144081967366, 49973.78438398652, -38262.49846965056, -0.074, 1.018, 0.03, 192.0, 0.0, 0.0, 0.0, 0.0, 0.0, 0.0, 0.0, 0.0, 0.0, 1.6814199869905763E9, 0.0, 2023-04-13 17:06:26.990
16.0, 20612.711681450808, 23602.793944215053, 3383.1376890108218, -6638.579861948474, 15361.884577498982, 35244.40947108382, 49928.67856367571, -38279.06111229195, -0.074, 1.018, 0.03, 192.0, 0.0, 0.0, 0.0, 0.0, 0.0, 0.0, 0.0, 0.0, 0.0, 1.681419986990772E9, 0.0, 2023-04-13 17:06:26.990
17.0, 20824.896791565036, 23901.279139671224, 3394.8500031054027, -6690.458260829242, 15273.818704345073, 35254.043072944056, 49905.633915142294, -38250.629693344796, -0.074, 1.018, 0.03, 192.0, 0.0, 0.0, 0.0, 0.0, 0.0, 0.0, 0.0, 0.0, 0.0, 1.6814199869907937E9, 0.0, 2023-04-13 17:06:26.990
18.0, 20866.73925718537, 23996.877550706573, 3457.189018391254, -6691.0841096739905, 15273.416372944877, 35294.723247852715, 49911.73594137859, -38193.90096591723, -0.084, 1.01, 0.032, 192.0, 253.0, 96.0, 31.0, 144.0, 1.0, 0.0, 0.0, 0.0, 0.0, 1.6814199869908135E9, 0.0, 2023-04-13 17:06:26.990
19.0, 20665.215929176324, 23710.17172457835, 3472.4999633431394, -6663.323243060499, 15305.491126238243, 35327.870884879936, 49921.10132230537, -38144.503610671, -0.084, 1.01, 0.032, 192.0, 0.0, 0.0, 0.0, 0.0, 0.0, 0.0, 0.0, 0.0, 0.0, 1.6814199869908404E9, 0.0, 2023-04-13 17:06:26.990
20.0, 20599.099469077526, 23578.34113578095, 3408.775139901059, -6627.828672865471, 15332.693199240352, 35290.36465768393, 49879.16944970721, -38162.72028240207, -0.084, 1.01, 0.032, 192.0, 0.0, 0.0, 0.0, 0.0, 0.0, 0.0, 0.0, 0.0, 0.0, 1.6814199869908693E9, 0.0, 2023-04-13 17:06:26.990
21.0, 20780.103895676602, 23818.4212229754, 3398.5827444294387, -6661.423344781798, 15265.436800174333, 35278.8758610339, 49848.94989120363, -38154.07015729787, -0.084, 1.01, 0.032, 192.0, 0.0, 0.0, 0.0, 0.0, 0.0, 0.0, 0.0, 0.0, 0.0, 1.6814199869908886E9, 0.0, 2023-04-13 17:06:26.990
22.0, 20891.125010386113, 24007.76285025631, 3464.252169639131, -6689.586542795485, 15232.378570124934, 35321.74650689918, 49855.25308314003, -38094.77097925794, -0.084, 1.01, 0.032, 192.0, 0.0, 0.0, 0.0, 0.0, 0.0, 0.0, 0.0, 0.0, 0.0, 1.681419986990913E9, 0.0, 2023-04-13 17:06:26.990
23.0, 20697.20127549187, 23748.616725041476, 3493.5553066200387, -6675.169667621812, 15259.02184951566, 35370.98739993422, 49875.92844676119, -38029.54858893735, -0.084, 1.01, 0.032, 192.0, 0.0, 0.0, 0.0, 0.0, 0.0, 0.0, 0.0, 0.0, 0.0, 1.6814199869909317E9, 0.0, 2023-04-13 17:06:26.990
24.0, 20597.89247487694, 23582.029173616073, 3437.743000715137, -6658.517618002608, 15281.284186993145, 35360.437376551316, 49849.17340864819, -38023.75948712343, -0.084, 1.01, 0.032, 192.0, 0.0, 0.0, 0.0, 0.0, 0.0, 0.0, 0.0, 0.0, 0.0, 1.681419986990951E9, 0.0, 2023-04-13 17:06:26.990
25.0, 20737.72498818934, 23765.402885127412, 3407.2999247670086, -6677.740118234172, 15250.215262200269, 35346.28872231111, 49819.93732690065, -38021.90429233364, -0.084, 1.01, 0.032, 192.0, 0.0, 0.0, 0.0, 0.0, 0.0, 0.0, 0.0, 0.0, 0.0, 1.68141998699097E9, 0.0, 2023-04-13 17:06:26.990
26.0, 20896.824705222214, 24019.05048120624, 3458.418364336296, -6685.540877049074, 15229.606953812476, 35368.19343187731, 49821.6584112237, -37986.34266690525, -0.084, 1.01, 0.032, 192.0, 0.0, 0.0, 0.0, 0.0, 0.0, 0.0, 0.0, 0.0, 0.0, 1.6814199869909887E9, 0.0, 2023-04-13 17:06:26.990
27.0, 20722.928133359925, 23789.118085994494, 3489.196716451254, -6656.79653367955, 15288.101469052013, 35398.81532178108, 49837.72931548707, -37941.92975067255, -0.084, 1.01, 0.032, 192.0, 0.0, 0.0, 0.0, 0.0, 0.0, 0.0, 0.0, 0.0, 0.0, 1.6814199869910078E9, 0.0, 2023-04-13 17:06:26.991
28.0, 20592.684518418853, 23559.14098729384, 3433.58557624645, -6616.205765748712, 15349.255841881733, 35360.929114929335, 49815.1093500983, -37965.9131724731, -0.088, 1.01, 0.03, 192.0, 253.0, 64.0, 31.0, 144.0, 0.0, 240.0, 0.0, 0.0, 0.0, 1.6814199869910269E9, 0.0, 2023-04-13 17:06:26.991
29.0, 20693.08855451209, 23689.7422301462, 3409.2445265346205, -6666.497190773152, 15287.408564973899, 35348.74741420119, 49802.2570970365, -37961.353416604215, -0.088, 1.01, 0.03, 192.0, 0.0, 0.0, 0.0, 0.0, 0.0, 0.0, 0.0, 0.0, 0.0, 1.681419986991047E9, 0.0, 2023-04-13 17:06:26.991
30.0, 20900.1327634016, 24007.09229792265, 3464.475687083684, -6708.250249415666, 15236.938325993817, 35383.48202508474, 49808.76145467299, -37913.34186951422, -0.088, 1.01, 0.03, 192.0, 0.0, 0.0, 0.0, 0.0, 0.0, 0.0, 0.0, 0.0, 0.0, 1.681419986991066E9, 0.0, 2023-04-13 17:06:26.991
31.0, 20765.418799569467, 23849.87012742402, 3509.536803905583, -6703.04229295758, 15266.755553097197, 35429.28074947366, 49825.21233859209, -37854.95911299695, -0.088, 1.01, 0.03, 192.0, 0.0, 0.0, 0.0, 0.0, 0.0, 0.0, 0.0, 0.0, 0.0, 1.6814199869910848E9, 0.0, 2023-04-13 17:06:26.991
32.0, 20600.21705630029, 23596.20017960074, 3466.3308818734745, -6690.815888740527, 15297.153925556413, 35418.954243535314, 49799.440777235126, -37848.27594140481, -0.088, 1.01, 0.03, 192.0, 0.0, 0.0, 0.0, 0.0, 0.0, 0.0, 0.0, 0.0, 0.0, 1.68141998699116E9, 0.0, 2023-04-13 17:06:26.991
33.0, 20650.240260391267, 23633.57229633001, 3401.287305508531, -6671.3028158310435, 15315.728225198774, 35367.18760337682, 49743.159084696665, -37884.530470911326, -0.088, 1.01, 0.03, 192.0, 0.0, 0.0, 0.0, 0.0, 0.0, 0.0, 0.0, 0.0, 0.0, 1.6814199869911797E9, 0.0, 2023-04-13 17:06:26.991
34.0, 20872.37189678811, 23964.065189846184, 3441.5651490169944, -6732.881871805414, 15225.091901432503, 35383.32556287355, 49735.045401459385, -37854.62383683012, -0.088, 1.01, 0.03, 192.0, 0.0, 0.0, 0.0, 0.0, 0.0, 0.0, 0.0, 0.0, 0.0, 1.6814199869911988E9, 0.0, 2023-04-13 17:06:26.991
35.0, 20787.189398668936, 23913.416136910455, 3516.667010386826, -6769.471677478752, 15190.692566715787, 35466.697569691845, 49764.7955733294, -37757.70667287191, -0.088, 1.01, 0.03, 192.0, 0.0, 0.0, 0.0, 0.0, 0.0, 0.0, 0.0, 0.0, 0.0, 1.6814199869912176E9, 0.0, 2023-04-13 17:06:26.991
36.0, 20605.469716247288, 23647.095101725474, 3490.448414140751, -6738.134531752412, 15241.252212673691, 35485.60714550104, 49745.6401283312, -37721.8544747656, -0.088, 1.01, 0.03, 192.0, 0.0, 0.0, 0.0, 0.0, 0.0, 0.0, 0.0, 0.0, 0.0, 1.6814199869912484E9, 0.0, 2023-04-13 17:06:26.991
37.0, 20621.853544933027, 23630.688921295277, 3416.642953949327, -6693.654560286351, 15273.461076433789, 35436.67917688837, 49694.432281784095, -37755.873829826574, -0.088, 1.01, 0.03, 192.0, 0.0, 0.0, 0.0, 0.0, 0.0, 0.0, 0.0, 0.0, 0.0, 1.6814199869912682E9, 0.0, 2023-04-13 17:06:26.991
38.0, 20848.679047665482, 23956.666762431476, 3436.15602685881, -6745.2423864892, 15191.05019462707, 35445.57517118158, 49684.59751422376, -37733.36562316008, -0.09, 1.004, 0.03, 192.0, 253.0, 48.0, 31.0, 96.0, 0.0, 240.0, 0.0, 0.0, 0.0, 1.6814199869912872E9, 0.0, 2023-04-13 17:06:26.991
39.0, 20829.45654743392, 23979.577300498164, 3502.540707891072, -6762.609691930973, 15185.730479446707, 35504.27085212122, 49710.81611046984, -37661.303599036175, -0.09, 1.004, 0.03, 192.0, 0.0, 0.0, 0.0, 0.0, 0.0, 0.0, 0.0, 0.0, 0.0, 1.6814199869913073E9, 0.0, 2023-04-13 17:06:26.991
40.0, 20628.335550825068, 23704.449677997793, 3499.7467398341587, -6750.629156902928, 15224.10842467647, 35538.55842811566, 49712.55954653735, -37609.983993766786, -0.09, 1.004, 0.03, 192.0, 0.0, 0.0, 0.0, 0.0, 0.0, 0.0, 0.0, 0.0, 0.0, 1.681419986991326E9, 0.0, 2023-04-13 17:06:26.991
41.0, 20595.925521364872, 23616.227342632694, 3411.412645746785, -6682.635150269884, 15296.729242411762, 35477.26994481921, 49656.613130165715, -37656.676787933924, -0.09, 1.004, 0.03, 192.0, 0.0, 0.0, 0.0, 0.0, 0.0, 0.0, 0.0, 0.0, 0.0, 1.6814199869913447E9, 0.0, 2023-04-13 17:06:26.991
42.0, 20806.568361111684, 23898.82044778114, 3402.5613549424834, -6700.963580723236, 15242.839186530018, 35452.928895107376, 49636.31774620029, -37668.567915984146, -0.09, 1.004, 0.03, 192.0, 0.0, 0.0, 0.0, 0.0, 0.0, 0.0, 0.0, 0.0, 0.0, 1.6814199869913638E9, 0.0, 2023-04-13 17:06:26.991
43.0, 20853.261155278822, 24014.602484059633, 3469.2589603971196, -6727.495101391685, 15214.899505960884, 35499.24170961878, 49659.42944996709, -37610.94511877836, -0.09, 1.004, 0.03, 192.0, 0.0, 0.0, 0.0, 0.0, 0.0, 0.0, 0.0, 0.0, 0.0, 1.6814199869913864E9, 0.0, 2023-04-13 17:06:26.991
44.0, 20638.058559663124, 23730.04242539912, 3472.969349976701, -6710.150147694368, 15251.981050012238, 35526.957872743355, 49668.03487158238, -37569.52733630268, -0.09, 1.004, 0.03, 192.0, 0.0, 0.0, 0.0, 0.0, 0.0, 0.0, 0.0, 0.0, 0.0, 1.6814199869914052E9, 0.0, 2023-04-13 17:06:26.991
45.0, 20571.15978850839, 23617.76961300011, 3410.9432591132236, -6697.633170799395, 15265.861483318984, 35504.69553526587, 49636.42950492257, -37576.411673594914, -0.09, 1.004, 0.03, 192.0, 0.0, 0.0, 0.0, 0.0, 0.0, 0.0, 0.0, 0.0, 0.0, 1.681419986991424E9, 0.0, 2023-04-13 17:06:26.991
46.0, 20751.53836626272, 23858.587307761587, 3384.836421589425, -6708.5184703491295, 15239.620535328453, 35484.64602048946, 49605.025303962866, -37583.698342287345, -0.09, 1.004, 0.03, 192.0, 0.0, 0.0, 0.0, 0.0, 0.0, 0.0, 0.0, 0.0, 0.0, 1.681419986991443E9, 0.0, 2023-04-13 17:06:26.991
47.0, 20861.754818171838, 24049.582964132187, 3441.4980937836285, -6726.533976380108, 15216.598238539487, 35515.60318656006, 49621.07385648178, -37542.52642900067, -0.09, 1.004, 0.03, 192.0, 0.0, 0.0, 0.0, 0.0, 0.0, 0.0, 0.0, 0.0, 0.0, 1.681419986991462E9, 0.0, 2023-04-13 17:06:26.991
48.0, 20671.809693790638, 23794.683670363866, 3465.481515584173, -6709.032560471602, 15258.351297182, 35553.243524222795, 49647.650080639134, -37489.82101557506, -0.1, 1.004, 0.03, 192.0, 252.0, 224.0, 31.0, 96.0, 0.0, 240.0, 0.0, 0.0, 0.0, 1.6814199869915016E9, 0.0, 2023-04-13 17:06:26.991
49.0, 20573.46201818729, 23628.00671196064, 3411.0773695799553, -6690.748833507161, 15282.669995149374, 35537.77611705972, 49630.39453391964, -37490.33510569753, -0.1, 1.004, 0.03, 192.0, 0.0, 0.0, 0.0, 0.0, 0.0, 0.0, 0.0, 0.0, 0.0, 1.6814199869915223E9, 0.0, 2023-04-13 17:06:26.991
50.0, 20710.455859953865, 23804.831362346576, 3372.7664795835594, -6707.289124404088, 15243.06270397457, 35512.51864582523, 49600.86787949418, -37504.70727738229, -0.1, 1.004, 0.03, 192.0, 0.0, 0.0, 0.0, 0.0, 0.0, 0.0, 0.0, 0.0, 0.0, 1.6814199869915416E9, 0.0, 2023-04-13 17:06:26.991
51.0, 20871.410771776533, 24064.24570849487, 3419.280459795053, -6739.520339908641, 15209.512735547154, 35537.46319263735, 49601.806652761305, -37469.950314754286, -0.1, 1.004, 0.03, 192.0, 0.0, 0.0, 0.0, 0.0, 0.0, 0.0, 0.0, 0.0, 0.0, 1.6814199869915607E9, 0.0, 2023-04-13 17:06:26.991
52.0, 20697.782420847707, 23846.852641922553, 3455.5349893015614, -6717.168595453334, 15251.221090700757, 35576.89166985651, 49625.700667584024, -37420.84353218598, -0.1, 1.004, 0.03, 192.0, 0.0, 0.0, 0.0, 0.0, 0.0, 0.0, 0.0, 0.0, 0.0, 1.68141998699158E9, 0.0, 2023-04-13 17:06:26.991
53.0, 20559.31336394708, 23628.878429994398, 3402.7178171536707, -6699.711883033739, 15289.59903593052, 35560.574896404134, 49603.684199295545, -37424.442163043284, -0.1, 1.004, 0.03, 192.0, 0.0, 0.0, 0.0, 0.0, 0.0, 0.0, 0.0, 0.0, 0.0, 1.681419986991599E9, 0.0, 2023-04-13 17:06:26.991
54.0, 20659.538586084676, 23747.74500700772, 3363.0434707455006, -6711.357141894954, 15259.670050104864, 35541.55356187267, 49579.365501328175, -37427.303186333564, -0.1, 1.004, 0.03, 192.0, 0.0, 0.0, 0.0, 0.0, 0.0, 0.0, 0.0, 0.0, 0.0, 1.681419986991618E9, 0.0, 2023-04-13 17:06:26.991
55.0, 20854.579908201686, 24046.74429258636, 3400.683808408238, -6743.498950421686, 15208.708072746764, 35556.55158240218, 49569.083698878734, -37398.20121505275, -0.1, 1.004, 0.03, 192.0, 0.0, 0.0, 0.0, 0.0, 0.0, 0.0, 0.0, 0.0, 0.0, 1.681419986991637E9, 0.0, 2023-04-13 17:06:26.991
56.0, 20726.86204038406, 23902.083802471614, 3446.057849652511, -6717.6156303424395, 15242.146282451902, 35602.104437602095, 49587.21096363199, -37340.48901086915, -0.1, 1.004, 0.03, 192.0, 0.0, 0.0, 0.0, 0.0, 0.0, 0.0, 0.0, 0.0, 0.0, 1.6814199869916556E9, 0.0, 2023-04-13 17:06:26.991
57.0, 20567.047067528616, 23657.890994297388, 3410.8538521354026, -6698.415481855332, 15275.718602623774, 35600.31629804568, 49570.67067273506, -37326.04978395102, -0.1, 1.004, 0.03, 192.0, 0.0, 0.0, 0.0, 0.0, 0.0, 0.0, 0.0, 0.0, 0.0, 1.681419986991675E9, 0.0, 2023-04-13 17:06:26.991
58.0, 20615.885629163462, 23705.41080300937, 3352.582854340417, -6706.395054625876, 15254.819721558062, 35571.147271531496, 49525.60955591316, -37341.13721145835, -0.096, 1.004, 0.034, 192.0, 253.0, 0.0, 31.0, 96.0, 1.0, 16.0, 0.0, 0.0, 0.0, 1.681419986991694E9, 0.0, 2023-04-13 17:06:26.991
59.0, 20835.089187036658, 24015.5189055823, 3366.843267302903, -6723.538842623097, 15214.743043749697, 35559.03262603672, 49496.14995672106, -37342.299502170026, -0.096, 1.004, 0.034, 192.0, 0.0, 0.0, 0.0, 0.0, 0.0, 0.0, 0.0, 0.0, 0.0, 1.681419986991714E9, 0.0, 2023-04-13 17:06:26.991
60.0, 20753.460616285876, 23935.387901710023, 3414.765407415081, -6714.821662285526, 15244.87319527545, 35591.04032409672, 49508.64458187158, -37300.81466446098, -0.096, 1.004, 0.034, 192.0, 0.0, 0.0, 0.0, 0.0, 0.0, 0.0, 0.0, 0.0, 0.0, 1.6814199869917333E9, 0.0, 2023-04-13 17:06:26.991
61.0, 20572.903224575904, 23661.19905247677, 3397.4651572066737, -6694.503926575652, 15273.125800266958, 35600.2045393234, 49507.54934639327, -37278.552326983496, -0.096, 1.004, 0.034, 192.0, 0.0, 0.0, 0.0, 0.0, 0.0, 0.0, 0.0, 0.0, 0.0, 1.681419986991752E9, 0.0, 2023-04-13 17:06:26.991
62.0, 20574.400791454413, 23645.262258680137, 3338.8812349893137, -6707.825566271015, 15256.138474480926, 35573.09187329911, 49475.74281403337, -37289.25881257759, -0.096, 1.004, 0.034, 192.0, 0.0, 0.0, 0.0, 0.0, 0.0, 0.0, 0.0, 0.0, 0.0, 1.6814199869917707E9, 0.0, 2023-04-13 17:06:26.991
63.0, 20787.904654491504, 23964.51222473529, 3358.640177087805, -6769.851657134493, 15174.644014196876, 35587.24052753932, 49466.62330229561, -37259.50864070757, -0.096, 1.004, 0.034, 192.0, 0.0, 0.0, 0.0, 0.0, 0.0, 0.0, 0.0, 0.0, 0.0, 1.6814199869918444E9, 0.0, 2023-04-13 17:06:26.991
64.0, 20769.95620369389, 23972.64825971702, 3404.8188811324694, -6739.699153864283, 15218.475785073733, 35609.79343769472, 49471.09365118667, -37224.17053272373, -0.096, 1.004, 0.034, 192.0, 0.0, 0.0, 0.0, 0.0, 0.0, 0.0, 0.0, 0.0, 0.0, 1.6814199869918709E9, 0.0, 2023-04-13 17:06:26.991
65.0, 20582.402715969412, 23696.40304999388, 3413.1784335587545, -6727.249232202677, 15237.407712627377, 35642.91872297749, 49483.94590424847, -37176.71777924511, -0.096, 1.004, 0.034, 192.0, 0.0, 0.0, 0.0, 0.0, 0.0, 0.0, 0.0, 0.0, 0.0, 1.6814199869918985E9, 0.0, 2023-04-13 17:06:26.991
66.0, 20556.318230190067, 23617.613150788922, 3343.8880257473024, -6684.713862504228, 15279.160771269891, 35603.33378354714, 49436.69431646995, -37203.60692782485, -0.096, 1.004, 0.034, 192.0, 0.0, 0.0, 0.0, 0.0, 0.0, 0.0, 0.0, 0.0, 0.0, 1.6814199869919353E9, 0.0, 2023-04-13 17:06:26.991
67.0, 20762.53542453473, 23895.087706457103, 3338.61301405585, -6703.064644702035, 15229.182270667825, 35582.256088525784, 49407.05590332221, -37211.34063140638, -0.096, 1.004, 0.034, 192.0, 0.0, 0.0, 0.0, 0.0, 0.0, 0.0, 0.0, 0.0, 0.0, 1.6814199869919553E9, 0.0, 2023-04-13 17:06:26.991
68.0, 20812.156297225512, 24005.147696155036, 3399.5438694410173, -6714.218165185233, 15217.24643912869, 35612.63210924055, 49421.62924070707, -37167.01712215151, -0.096, 1.0, 0.03, 192.0, 253.0, 0.0, 31.0, 64.0, 0.0, 240.0, 0.0, 0.0, 0.0, 1.6814199869919744E9, 0.0, 2023-04-13 17:06:26.991
69.0, 20605.69323369184, 23715.84906767, 3402.024913075556, -6672.46510654272, 15280.54657942612, 35624.88086520205, 49437.722496714894, -37141.15615381672, -0.096, 1.0, 0.03, 192.0, 0.0, 0.0, 0.0, 0.0, 0.0, 0.0, 0.0, 0.0, 0.0, 1.6814199869919944E9, 0.0, 2023-04-13 17:06:26.991
70.0, 20540.224974182245, 23591.819237687498, 3348.3360228939086, -6657.377679035388, 15288.481448707755, 35599.37752477855, 49422.903290141025, -37150.99092137706, -0.096, 1.0, 0.03, 192.0, 0.0, 0.0, 0.0, 0.0, 0.0, 0.0, 0.0, 0.0, 0.0, 1.6814199869920132E9, 0.0, 2023-04-13 17:06:26.992
71.0, 20705.136144773503, 23811.916865338906, 3323.838510970892, -6677.807173467538, 15243.912070263872, 35570.20849826437, 49394.047188049226, -37163.954933161134, -0.096, 1.0, 0.03, 192.0, 0.0, 0.0, 0.0, 0.0, 0.0, 0.0, 0.0, 0.0, 0.0, 1.6814199869920323E9, 0.0, 2023-04-13 17:06:26.992
72.0, 20816.58194262766, 24009.461582834912, 3381.550715154495, -6696.1356039208895, 15205.802345967573, 35593.00727760879, 49407.14531030003, -37126.67222340968, -0.096, 1.0, 0.03, 192.0, 0.0, 0.0, 0.0, 0.0, 0.0, 0.0, 0.0, 0.0, 0.0, 1.6814199869920516E9, 0.0, 2023-04-13 17:06:26.992
73.0, 20626.547411268642, 23761.93836473684, 3410.2280032906538, -6686.814926483027, 15232.06564570256, 35630.40174608252, 49433.36390654611, -37074.34678963981, -0.096, 1.0, 0.03, 192.0, 0.0, 0.0, 0.0, 0.0, 0.0, 0.0, 0.0, 0.0, 0.0, 1.6814199869920704E9, 0.0, 2023-04-13 17:06:26.992
74.0, 20524.310532130068, 23588.44412427475, 3357.701403820682, -6671.414574553321, 15249.321192422056, 35608.541740005225, 49411.83917663565, -37080.22529843156, -0.096, 1.0, 0.03, 192.0, 0.0, 0.0, 0.0, 0.0, 0.0, 0.0, 0.0, 0.0, 0.0, 1.681419986992102E9, 0.0, 2023-04-13 17:06:26.992
75.0, 20656.94578372786, 23762.877138003965, 3326.766589494537, -6700.293028389577, 15198.515677275143, 35587.84402463961, 49386.87227807907, -37085.27679267845, -0.096, 1.0, 0.03, 192.0, 0.0, 0.0, 0.0, 0.0, 0.0, 0.0, 0.0, 0.0, 0.0, 1.681419986992121E9, 0.0, 2023-04-13 17:06:26.992
76.0, 20826.327303210175, 24020.883324251572, 3372.610017372372, -6721.5495373665735, 15166.463275726233, 35605.30073705921, 49390.85088859211, -37056.91242896467, -0.096, 1.0, 0.03, 192.0, 0.0, 0.0, 0.0, 0.0, 0.0, 0.0, 0.0, 0.0, 0.0, 1.68141998699214E9, 0.0, 2023-04-13 17:06:26.992
77.0, 20669.015725733727, 23817.884781108474, 3416.0394568490337, -6706.015074970135, 15201.779031965618, 35652.97700798238, 49424.378505275075, -36996.00392532396, -0.096, 1.0, 0.03, 192.0, 0.0, 0.0, 0.0, 0.0, 0.0, 0.0, 0.0, 0.0, 0.0, 1.681419986992159E9, 0.0, 2023-04-13 17:06:26.992
78.0, 20528.423253109846, 23582.90089164983, 3356.6285200868274, -6658.830542424982, 15266.375573441455, 35617.12480987606, 49401.89265035304, -37015.7852191669, -0.094, 1.0, 0.03, 192.0, 253.0, 16.0, 31.0, 64.0, 0.0, 240.0, 0.0, 0.0, 0.0, 1.6814199869921775E9, 0.0, 2023-04-13 17:06:26.992
79.0, 20619.12663210948, 23674.096009027482, 3306.4265020402077, -6657.668251713307, 15249.12002672196, 35567.369826718554, 49369.72849008185, -37050.2963126059, -0.094, 1.0, 0.03, 192.0, 0.0, 0.0, 0.0, 0.0, 0.0, 0.0, 0.0, 0.0, 0.0, 1.6814199869922645E9, 0.0, 2023-04-13 17:06:26.992
80.0, 20825.813213087706, 23988.27212909128, 3360.4506683886852, -6713.368798895932, 15167.312642015535, 35589.43099849594, 49379.09387100862, -37013.63945169919, -0.094, 1.0, 0.03, 192.0, 0.0, 0.0, 0.0, 0.0, 0.0, 0.0, 0.0, 0.0, 0.0, 1.6814199869922838E9, 0.0, 2023-04-13 17:06:26.992
81.0, 20695.547246402177, 23844.684522710388, 3410.2280032906538, -6704.606915069451, 15190.089069615493, 35632.6592722725, 49396.72939738386, -36956.24017193796, -0.094, 1.0, 0.03, 192.0, 0.0, 0.0, 0.0, 0.0, 0.0, 0.0, 0.0, 0.0, 0.0, 1.681419986992303E9, 0.0, 2023-04-13 17:06:26.992
82.0, 20525.852802497484, 23585.94072889575, 3376.879200563336, -6687.887810216882, 15223.192003153803, 35624.38912682404, 49380.43497567594, -36946.13718344417, -0.094, 1.0, 0.03, 192.0, 0.0, 0.0, 0.0, 0.0, 0.0, 0.0, 0.0, 0.0, 0.0, 1.6814199869923215E9, 0.0, 2023-04-13 17:06:26.992
83.0, 20573.998460054216, 23615.020348432106, 3319.8599004578473, -6681.092879902468, 15224.890735732406, 35578.32218150165, 49348.807257271685, -36975.46267216953, -0.094, 1.0, 0.03, 192.0, 0.0, 0.0, 0.0, 0.0, 0.0, 0.0, 0.0, 0.0, 0.0, 1.6814199869923403E9, 0.0, 2023-04-13 17:06:26.992
84.0, 20797.82882902966, 23925.083747516128, 3342.055182701967, -6706.350351136965, 15182.064793356038, 35562.38538770502, 49342.437010101916, -36977.027294281404, -0.094, 1.0, 0.03, 192.0, 0.0, 0.0, 0.0, 0.0, 0.0, 0.0, 0.0, 0.0, 0.0, 1.6814199869923592E9, 0.0, 2023-04-13 17:06:26.992
85.0, 20730.706540430372, 23859.52608102871, 3408.842195134425, -6703.936362735792, 15188.47974401471, 35597.365867777575, 49380.85965882059, -36922.37727908818, -0.094, 1.0, 0.03, 192.0, 0.0, 0.0, 0.0, 0.0, 0.0, 0.0, 0.0, 0.0, 0.0, 1.6814199869923782E9, 0.0, 2023-04-13 17:06:26.992
86.0, 20551.959640021283, 23577.648231702835, 3394.380616471841, -6667.771240207106, 15240.06757021756, 35590.503882229794, 49394.42716770496, -36909.72619172647, -0.094, 1.0, 0.03, 192.0, 0.0, 0.0, 0.0, 0.0, 0.0, 0.0, 0.0, 0.0, 0.0, 1.6814199869924011E9, 0.0, 2023-04-13 17:06:26.992
87.0, 20562.68847735983, 23558.649248915823, 3347.1066769488666, -6674.923798432804, 15223.124947920436, 35558.339721958604, 49376.72458609636, -36923.71838375549, -0.094, 1.0, 0.03, 192.0, 0.0, 0.0, 0.0, 0.0, 0.0, 0.0, 0.0, 0.0, 0.0, 1.68141998699242E9, 0.0, 2023-04-13 17:06:26.992
88.0, 20789.223407414367, 23870.120807900526, 3364.138706223811, -6709.971333738725, 15163.892825113873, 35549.622541621036, 49359.647853332506, -36915.850569707225, -0.096, 1.004, 0.036000000000000004, 192.0, 253.0, 0.0, 31.0, 96.0, 1.0, 32.0, 0.0, 0.0, 0.0, 1.6814199869924388E9, 0.0, 2023-04-13 17:06:26.992
89.0, 20784.1048579341, 23905.14599146199, 3434.859625680402, -6737.62044162994, 15145.005601049139, 35600.2045393234, 49378.26685646378, -36849.46588867496, -0.096, 1.004, 0.036000000000000004, 192.0, 0.0, 0.0, 0.0, 0.0, 0.0, 0.0, 0.0, 0.0, 0.0, 1.6814199869924588E9, 0.0, 2023-04-13 17:06:26.992
90.0, 20583.78852412564, 23611.645235019358, 3425.2036720757096, -6704.539859836085, 15204.751813978173, 35605.56895799267, 49374.37765292855, -36828.65641458707, -0.096, 1.004, 0.036000000000000004, 192.0, 0.0, 0.0, 0.0, 0.0, 0.0, 0.0, 0.0, 0.0, 0.0, 1.6814199869924808E9, 0.0, 2023-04-13 17:06:26.992
91.0, 20552.67489584385, 23544.99233305363, 3380.5672383984615, -6716.1851186973, 15188.658557970353, 35587.46404498387, 49350.17071368345, -36829.70694657647, -0.096, 1.004, 0.036000000000000004, 192.0, 0.0, 0.0, 0.0, 0.0, 0.0, 0.0, 0.0, 0.0, 0.0, 1.6814199869924996E9, 0.0, 2023-04-13 17:06:26.992
92.0, 20751.985401151825, 23809.502876937735, 3372.297092949998, -6734.088866006001, 15156.80732212154, 35560.79841384869, 49310.138739364, -36841.1957432265, -0.096, 1.004, 0.036000000000000004, 192.0, 0.0, 0.0, 0.0, 0.0, 0.0, 0.0, 0.0, 0.0, 0.0, 1.681419986992519E9, 0.0, 2023-04-13 17:06:26.992
93.0, 20810.59167511364, 23926.15663124998, 3439.642898993838, -6746.4940841786965, 15139.909403313328, 35592.4484839974, 49314.47497778833, -36794.72646650392, -0.096, 1.004, 0.036000000000000004, 192.0, 0.0, 0.0, 0.0, 0.0, 0.0, 0.0, 0.0, 0.0, 0.0, 1.6814199869925375E9, 0.0, 2023-04-13 17:06:26.992
94.0, 20614.097489607037, 23647.229212192204, 3455.5349893015614, -6718.397941398375, 15186.19986608027, 35617.214216853885, 49323.393323826, -36755.23093405139, -0.096, 1.004, 0.036000000000000004, 192.0, 0.0, 0.0, 0.0, 0.0, 0.0, 0.0, 0.0, 0.0, 0.0, 1.6814199869925563E9, 0.0, 2023-04-13 17:06:26.992
95.0, 20552.764302821673, 23526.015702011075, 3409.736264912637, -6719.828453043516, 15184.679947457309, 35601.99267887982, 49297.621762469025, -36753.01811135031, -0.096, 1.004, 0.036000000000000004, 192.0, 0.0, 0.0, 0.0, 0.0, 0.0, 0.0, 0.0, 0.0, 0.0, 1.6814199869925947E9, 0.0, 2023-04-13 17:06:26.992
96.0, 20728.04668284019, 23754.338771622035, 3390.960799570179, -6747.656374890373, 15144.558566160033, 35581.27261176975, 49257.0756980271, -36756.728500929894, -0.096, 1.004, 0.036000000000000004, 192.0, 0.0, 0.0, 0.0, 0.0, 0.0, 0.0, 0.0, 0.0, 0.0, 1.6814199869926138E9, 0.0, 2023-04-13 17:06:26.992
97.0, 20858.31264952572, 23965.16042532449, 3460.7429457596477, -6765.850694876993, 15110.315693654502, 35619.248225599316, 49262.75304111875, -36707.28644219475, -0.096, 1.004, 0.036000000000000004, 192.0, 0.0, 0.0, 0.0, 0.0, 0.0, 0.0, 0.0, 0.0, 0.0, 1.6814199869926329E9, 0.0, 2023-04-13 17:06:26.992
98.0, 20668.56869084462, 23715.558494992078, 3491.856574041435, -6752.9537383262805, 15142.904537070339, 35661.85065053113, 49281.684968672394, -36652.05528164569, -0.094, 1.0, 0.034, 192.0, 253.0, 16.0, 31.0, 64.0, 1.0, 16.0, 0.0, 0.0, 0.0, 1.681419986992652E9, 0.0, 2023-04-13 17:06:26.992
99.0, 20560.565061636575, 23534.41995792627, 3441.25222459462, -6743.878930077426, 15161.389429734878, 35641.37645261007, 49255.91340731543, -36659.856040460596, -0.094, 1.0, 0.034, 192.0, 0.0, 0.0, 0.0, 0.0, 0.0, 0.0, 0.0, 0.0, 0.0, 1.6814199869926717E9, 0.0, 2023-04-13 17:06:26.992
100.0, 20687.075935253615, 23688.35642198997, 3397.398101973308, -6739.252118975177, 15160.51771170112, 35597.075295099654, 49208.438302092356, -36690.36617164209, -0.094, 1.0, 0.034, 192.0, 0.0, 0.0, 0.0, 0.0, 0.0, 0.0, 0.0, 0.0, 0.0, 1.6814199869926908E9, 0.0, 2023-04-13 17:06:26.992
101.0, 20856.83743439167, 23952.97872459635, 3453.098649155933, -6769.695194923305, 15115.210725690215, 35608.16176034949, 49205.19729914633, -36669.19906964291, -0.094, 1.0, 0.034, 192.0, 0.0, 0.0, 0.0, 0.0, 0.0, 0.0, 0.0, 0.0, 0.0, 1.6814199869927096E9, 0.0, 2023-04-13 17:06:26.992
102.0, 20692.887388811992, 23749.287277375137, 3497.4892136441727, -6748.3716307129425, 15160.696525656764, 35642.382281110564, 49220.46354060931, -36624.473228987845, -0.094, 1.0, 0.034, 192.0, 0.0, 0.0, 0.0, 0.0, 0.0, 0.0, 0.0, 0.0, 0.0, 1.6814199869927285E9, 0.0, 2023-04-13 17:06:26.992
103.0, 20553.837186555527, 23510.52594310355, 3443.621509506883, -6696.180307409801, 15221.269753130646, 35600.31629804568, 49175.916513909884, -36653.53049677974, -0.094, 1.0, 0.034, 192.0, 0.0, 0.0, 0.0, 0.0, 0.0, 0.0, 0.0, 0.0, 0.0, 1.6814199869927473E9, 0.0, 2023-04-13 17:06:26.992
104.0, 20643.154757398934, 23607.10783089493, 3399.5215176965617, -6695.442699842775, 15214.474822816233, 35550.69542535489, 49130.87774883244, -36687.72866579636, -0.094, 1.0, 0.034, 192.0, 0.0, 0.0, 0.0, 0.0, 0.0, 0.0, 0.0, 0.0, 0.0, 1.681419986992766E9, 0.0, 2023-04-13 17:06:26.992
105.0, 20855.83160589118, 23919.71932884685, 3450.639957265849, -6734.960584039758, 15155.689734898775, 35556.01514053525, 49133.06821978906, -36670.56252605469, -0.094, 1.0, 0.034, 192.0, 0.0, 0.0, 0.0, 0.0, 0.0, 0.0, 0.0, 0.0, 0.0, 1.6814199869927847E9, 0.0, 2023-04-13 17:06:26.992
106.0, 20730.48302298582, 23795.086001764063, 3513.9177458188233, -6752.439648203808, 15152.649897652853, 35610.1063621171, 49163.06426084808, -36602.36735372154, -0.094, 1.0, 0.034, 192.0, 0.0, 0.0, 0.0, 0.0, 0.0, 0.0, 0.0, 0.0, 0.0, 1.6814199869928036E9, 0.0, 2023-04-13 17:06:26.992
107.0, 20559.380419180445, 23543.897097575322, 3482.714710559215, -6742.76134285466, 15168.720801916219, 35610.06165862819, 49152.02249908716, -36583.14485348998, -0.094, 1.0, 0.034, 192.0, 0.0, 0.0, 0.0, 0.0, 0.0, 0.0, 0.0, 0.0, 0.0, 1.6814199869928255E9, 0.0, 2023-04-13 17:06:26.992
108.0, 20604.597998213532, 23586.655984718323, 3433.1161896128883, -6748.0810580350235, 15145.273821982602, 35585.18416704943, 49117.466702159254, -36589.515100659744, -0.09, 1.002, 0.036000000000000004, 192.0, 253.0, 48.0, 31.0, 80.0, 1.0, 32.0, 0.0, 0.0, 0.0, 1.6814199869928443E9, 0.0, 2023-04-13 17:06:26.992
109.0, 20829.83652708966, 23900.49682861529, 3452.8751317113797, -6759.949834340791, 15108.259333164613, 35572.28721049872, 49096.97015249373, -36591.57146114963, -0.09, 1.002, 0.036000000000000004, 192.0, 0.0, 0.0, 0.0, 0.0, 0.0, 0.0, 0.0, 0.0, 0.0, 1.6814199869928644E9, 0.0, 2023-04-13 17:06:26.992
110.0, 20765.038819913723, 23856.10626412705, 3523.484292445695, -6771.103354823989, 15103.252542406624, 35626.53489429175, 49131.50359767718, -36525.14207662846, -0.09, 1.002, 0.036000000000000004, 192.0, 0.0, 0.0, 0.0, 0.0, 0.0, 0.0, 0.0, 0.0, 0.0, 1.6814199869929328E9, 0.0, 2023-04-13 17:06:26.992
111.0, 20573.909053076393, 23573.893138634343, 3500.0820160009885, -6730.400828170876, 15170.799514150563, 35623.74092623484, 49120.73005684973, -36510.63579447696, -0.09, 1.002, 0.036000000000000004, 192.0, 0.0, 0.0, 0.0, 0.0, 0.0, 0.0, 0.0, 0.0, 0.0, 1.6814199869929652E9, 0.0, 2023-04-13 17:06:26.992
112.0, 20578.22293975627, 23564.974792596673, 3450.0364601655556, -6744.057744033068, 15146.838444094474, 35595.890652643524, 49090.264629157144, -36521.3199283266, -0.09, 1.002, 0.036000000000000004, 192.0, 0.0, 0.0, 0.0, 0.0, 0.0, 0.0, 0.0, 0.0, 0.0, 1.6814199869929843E9, 0.0, 2023-04-13 17:06:26.992
113.0, 20797.94058775194, 23874.837025980596, 3455.9820241906673, -6766.141267554912, 15111.634446577365, 35579.43976872442, 49064.91775094483, -36525.3208905841, -0.09, 1.002, 0.036000000000000004, 192.0, 0.0, 0.0, 0.0, 0.0, 0.0, 0.0, 0.0, 0.0, 0.0, 1.6814199869930031E9, 0.0, 2023-04-13 17:06:26.993
114.0, 20800.131058708557, 23908.16347696346, 3518.186929009787, -6754.048973804591, 15124.75492057263, 35608.47468477186, 49089.88464950141, -36484.79717788663, -0.09, 1.002, 0.036000000000000004, 192.0, 0.0, 0.0, 0.0, 0.0, 0.0, 0.0, 0.0, 0.0, 0.0, 1.6814199869930224E9, 0.0, 2023-04-13 17:06:26.993
115.0, 20604.75446042472, 23624.96687471472, 3521.472635444717, -6746.561139412062, 15150.459426696234, 35629.306510604205, 49101.61931534044, -36450.91193329238, -0.09, 1.002, 0.036000000000000004, 192.0, 0.0, 0.0, 0.0, 0.0, 0.0, 0.0, 0.0, 0.0, 0.0, 1.6814199869930415E9, 0.0, 2023-04-13 17:06:26.993
116.0, 20573.193797253825, 23550.714379634188, 3465.7273847731813, -6751.612633658962, 15149.85592959594, 35605.45719927039, 49066.0800416565, -36463.87594507646, -0.09, 1.002, 0.036000000000000004, 192.0, 0.0, 0.0, 0.0, 0.0, 0.0, 0.0, 0.0, 0.0, 0.0, 1.6814199869930604E9, 0.0, 2023-04-13 17:06:26.993
117.0, 20772.280785117244, 23818.153002041938, 3453.433925322762, -6762.274415764144, 15115.23307743467, 35578.702161157395, 49033.93823312977, -36480.05860806211, -0.09, 1.002, 0.036000000000000004, 192.0, 0.0, 0.0, 0.0, 0.0, 0.0, 0.0, 0.0, 0.0, 0.0, 1.6814199869930792E9, 0.0, 2023-04-13 17:06:26.993
118.0, 20839.112501038613, 23946.139090793025, 3523.059609301044, -6759.771020385149, 15098.357510370912, 35610.32987956165, 49054.23361709519, -36436.83033428554, -0.084, 1.002, 0.034, 192.0, 253.0, 96.0, 31.0, 80.0, 1.0, 16.0, 0.0, 0.0, 0.0, 1.6814199869930983E9, 0.0, 2023-04-13 17:06:26.993
119.0, 20642.685370765375, 23685.87537835543, 3556.922502150834, -6760.106296551979, 15114.495469867645, 35658.40848188502, 49085.61546631044, -36370.80328116456, -0.084, 1.002, 0.034, 192.0, 0.0, 0.0, 0.0, 0.0, 0.0, 0.0, 0.0, 0.0, 0.0, 1.6814199869931183E9, 0.0, 2023-04-13 17:06:26.993
120.0, 20565.97418379476, 23558.582193682458, 3499.2326497116865, -6747.634023145917, 15141.585784147477, 35633.46393507289, 49049.91973041531, -36375.54185098909, -0.084, 1.002, 0.034, 192.0, 0.0, 0.0, 0.0, 0.0, 0.0, 0.0, 0.0, 0.0, 0.0, 1.6814199869931371E9, 0.0, 2023-04-13 17:06:26.993
121.0, 20736.473290499842, 23790.28037670617, 3483.4970216151505, -6766.253026277188, 15086.60049278742, 35615.895463931025, 49019.34254400046, -36375.47479575572, -0.084, 1.002, 0.034, 192.0, 0.0, 0.0, 0.0, 0.0, 0.0, 0.0, 0.0, 0.0, 0.0, 1.6814199874700062E9, 0.0, 2023-04-13 17:06:27.470
122.0, 20857.70915242543, 24008.791030501252, 3549.7475921806804, -6814.376332089464, 15038.521890464055, 35660.263676674804, 49028.28324178258, -36316.55559737153, -0.084, 1.002, 0.034, 192.0, 0.0, 0.0, 0.0, 0.0, 0.0, 0.0, 0.0, 0.0, 0.0, 1.6814199874702346E9, 0.0, 2023-04-13 17:06:27.470
123.0, 20661.349077385556, 23749.331980864048, 3562.6221969869375, -6779.3064450390875, 15109.84630702094, 35684.53767115327, 49032.75359067364, -36279.69757076473, -0.084, 1.002, 0.034, 192.0, 0.0, 0.0, 0.0, 0.0, 0.0, 0.0, 0.0, 0.0, 0.0, 1.681419987470286E9, 0.0, 2023-04-13 17:06:27.470
124.0, 20560.520358147664, 23562.80667338451, 3503.859460813935, -6740.2132439867555, 15152.80635986404, 35651.43473761496, 49005.77503511609, -36298.16011168482, -0.084, 1.002, 0.034, 192.0, 0.0, 0.0, 0.0, 0.0, 0.0, 0.0, 0.0, 0.0, 0.0, 1.6814199874703295E9, 0.0, 2023-04-13 17:06:27.470
125.0, 20694.96610104634, 23725.102689874493, 3470.376547619885, -6745.510607422663, 15124.620810105898, 35614.59906275261, 48973.096784722424, -36321.18240847378, -0.084, 1.002, 0.034, 192.0, 0.0, 0.0, 0.0, 0.0, 0.0, 0.0, 0.0, 0.0, 0.0, 1.6814199874703848E9, 0.0, 2023-04-13 17:06:27.470
126.0, 20873.243614821866, 24004.097164165636, 3534.9060338623567, -6799.400663304408, 15047.663753946275, 35645.37741486757, 48979.37762491436, -36277.97648644167, -0.084, 1.002, 0.034, 192.0, 0.0, 0.0, 0.0, 0.0, 0.0, 0.0, 0.0, 0.0, 0.0, 1.681419987470483E9, 0.0, 2023-04-13 17:06:27.470
127.0, 20714.05449081117, 23805.300748980135, 3579.3189500950516, -6791.309331811587, 15079.403231072813, 35688.98566829988, 48996.00732278911, -36219.92900609124, -0.084, 1.002, 0.034, 192.0, 0.0, 0.0, 0.0, 0.0, 0.0, 0.0, 0.0, 0.0, 0.0, 1.6814199874705188E9, 0.0, 2023-04-13 17:06:27.470
128.0, 20576.211282755292, 23578.81052241451, 3527.798179125569, -6740.14618875339, 15148.648935395353, 35660.37543539708, 48969.07347072047, -36236.201076054705, -0.084, 1.006, 0.034, 192.0, 253.0, 96.0, 31.0, 112.0, 1.0, 16.0, 0.0, 0.0, 0.0, 1.681419987470568E9, 0.0, 2023-04-13 17:06:27.470
129.0, 20672.90492926895, 23674.87832008342, 3484.122870459899, -6717.213298942244, 15152.873415097407, 35611.559225506695, 48942.81017098548, -36272.92499219477, -0.084, 1.006, 0.034, 192.0, 0.0, 0.0, 0.0, 0.0, 0.0, 0.0, 0.0, 0.0, 0.0, 1.6814199874706051E9, 0.0, 2023-04-13 17:06:27.470
130.0, 20888.80042896276, 23986.215768601392, 3536.515359463139, -6752.864331348459, 15092.166077156793, 35614.688469730434, 48957.584674070444, -36257.68110247626, -0.084, 1.006, 0.034, 192.0, 0.0, 0.0, 0.0, 0.0, 0.0, 0.0, 0.0, 0.0, 0.0, 1.6814199874706433E9, 0.0, 2023-04-13 17:06:27.470
131.0, 20775.812360741184, 23862.25299385226, 3600.4413486053168, -6755.904168594381, 15104.861868007407, 35662.34238890915, 49001.19292750274, -36198.27016571405, -0.084, 1.006, 0.034, 192.0, 0.0, 0.0, 0.0, 0.0, 0.0, 0.0, 0.0, 0.0, 0.0, 1.68141998747068E9, 0.0, 2023-04-13 17:06:27.470
132.0, 20609.381271526967, 23614.819182732008, 3577.1955343717977, -6749.4892179357075, 15124.486699639167, 35668.28795293426, 49001.4164449473, -36178.10889221536, -0.084, 1.006, 0.034, 192.0, 0.0, 0.0, 0.0, 0.0, 0.0, 0.0, 0.0, 0.0, 0.0, 1.6814199874707167E9, 0.0, 2023-04-13 17:06:27.470
133.0, 20649.189728401867, 23648.19033720378, 3520.7797313666024, -6748.751610368683, 15116.596533846443, 35630.87113271608, 48962.03267121705, -36200.41593318176, -0.084, 1.006, 0.034, 192.0, 0.0, 0.0, 0.0, 0.0, 0.0, 0.0, 0.0, 0.0, 0.0, 1.6814199874707537E9, 0.0, 2023-04-13 17:06:27.470
134.0, 20874.696478211463, 23973.341163795136, 3549.9711096252336, -6775.394889759409, 15062.415905286778, 35627.987757681345, 48950.76739201157, -36188.18952896471, -0.084, 1.006, 0.034, 192.0, 0.0, 0.0, 0.0, 0.0, 0.0, 0.0, 0.0, 0.0, 0.0, 1.6814199874707923E9, 0.0, 2023-04-13 17:06:27.470
135.0, 20816.425480416478, 23924.949637049394, 3613.8300435340457, -6773.137363569423, 15073.144742625325, 35668.24324944535, 48979.467031892185, -36131.5278567705, -0.084, 1.006, 0.034, 192.0, 0.0, 0.0, 0.0, 0.0, 0.0, 0.0, 0.0, 0.0, 0.0, 1.681419987470829E9, 0.0, 2023-04-13 17:06:27.470
136.0, 20633.364693327512, 23651.900726783362, 3598.764967771169, -6751.81379935906, 15114.98720824566, 35675.68638034897, 48982.64097960484, -36107.38797275877, -0.084, 1.006, 0.034, 192.0, 0.0, 0.0, 0.0, 0.0, 0.0, 0.0, 0.0, 0.0, 0.0, 1.681419987470864E9, 0.0, 2023-04-13 17:06:27.470
137.0, 20639.354960841534, 23631.471232351214, 3547.7806386686134, -6755.568892427551, 15109.958065743216, 35647.50083059083, 48957.6070258149, -36119.301452553445, -0.084, 1.006, 0.034, 192.0, 0.0, 0.0, 0.0, 0.0, 0.0, 0.0, 0.0, 0.0, 0.0, 1.6814199874709172E9, 0.0, 2023-04-13 17:06:27.470
138.0, 20856.770379158304, 23939.74649187881, 3557.2354265732083, -6799.579477260051, 15050.88240514784, 35642.024653199274, 48944.374793097355, -36112.75239142805, -0.084, 1.002, 0.028, 192.0, 253.0, 96.0, 31.0, 80.0, 0.0, 224.0, 0.0, 0.0, 0.0, 1.681419987470956E9, 0.0, 2023-04-13 17:06:27.470
139.0, 20859.16201581502, 23977.185663841447, 3615.506424368194, -6782.368634029464, 15077.324518838468, 35668.600877356635, 48973.54381961153, -36075.80495784342, -0.084, 1.002, 0.028, 192.0, 0.0, 0.0, 0.0, 0.0, 0.0, 0.0, 0.0, 0.0, 0.0, 1.681419987470998E9, 0.0, 2023-04-13 17:06:27.470
140.0, 20658.599812817552, 23686.948262089285, 3613.405360389395, -6750.316232480554, 15128.241792707659, 35676.20047047144, 48998.44366293474, -36053.90024827722, -0.084, 1.002, 0.028, 192.0, 0.0, 0.0, 0.0, 0.0, 0.0, 0.0, 0.0, 0.0, 0.0, 1.6814199874710307E9, 0.0, 2023-04-13 17:06:27.471
141.0, 20624.915733923404, 23613.34396759796, 3567.450173789284, -6754.00427031568, 15120.12810947038, 35655.34629289464, 48995.18030824427, -36057.87885879027, -0.084, 1.002, 0.028, 192.0, 0.0, 0.0, 0.0, 0.0, 0.0, 0.0, 0.0, 0.0, 0.0, 1.6814199874711127E9, 0.0, 2023-04-13 17:06:27.471
142.0, 20821.11934675209, 23885.610566808056, 3563.806839443069, -6794.3938725464195, 15064.561672754488, 35644.840973000646, 48985.59140987294, -36053.07323373237, -0.084, 1.002, 0.028, 192.0, 0.0, 0.0, 0.0, 0.0, 0.0, 0.0, 0.0, 0.0, 0.0, 1.6814199874711435E9, 0.0, 2023-04-13 17:06:27.471
143.0, 20892.309652842243, 24014.021338703795, 3625.072970995065, -6797.29959932561, 15049.809521413985, 35673.33944718116, 49008.23372700617, -36008.906186688684, -0.084, 1.002, 0.028, 192.0, 0.0, 0.0, 0.0, 0.0, 0.0, 0.0, 0.0, 0.0, 0.0, 1.6814199874712043E9, 0.0, 2023-04-13 17:06:27.471
144.0, 20695.56959814663, 23747.834413985544, 3642.1273520144646, -6790.884648666936, 15073.971757170173, 35707.35880224214, 49029.28907028307, -35956.491345940995, -0.084, 1.002, 0.028, 192.0, 0.0, 0.0, 0.0, 0.0, 0.0, 0.0, 0.0, 0.0, 0.0, 1.6814199874712412E9, 0.0, 2023-04-13 17:06:27.471
145.0, 20626.27919033518, 23617.255522877636, 3586.1585838983756, -6762.2297122752325, 15102.783155773062, 35679.15090073954, 49006.31147698301, -35969.07537806933, -0.084, 1.002, 0.028, 192.0, 0.0, 0.0, 0.0, 0.0, 0.0, 0.0, 0.0, 0.0, 0.0, 1.681419987471279E9, 0.0, 2023-04-13 17:06:27.471
146.0, 20796.979462740357, 23840.348284286058, 3571.5852465135154, -6786.0566718645905, 15056.827969172951, 35662.90118252053, 48986.239610462144, -35973.545726960394, -0.084, 1.002, 0.028, 192.0, 0.0, 0.0, 0.0, 0.0, 0.0, 0.0, 0.0, 0.0, 0.0, 1.6814199874713173E9, 0.0, 2023-04-13 17:06:27.471
147.0, 20918.640007810594, 24038.38474016008, 3624.022439005666, -6791.1081661114895, 15049.764817925075, 35674.38997917056, 48988.40772967431, -35953.71972962853, -0.084, 1.002, 0.028, 192.0, 0.0, 0.0, 0.0, 0.0, 0.0, 0.0, 0.0, 0.0, 0.0, 1.6814199874713545E9, 0.0, 2023-04-13 17:06:27.471
148.0, 20731.824127653137, 23791.353260440024, 3655.4936951987384, -6773.830267647537, 15085.259388120103, 35703.134322540085, 49003.718674626194, -35913.53129309789, -0.088, 1.008, 0.03, 192.0, 253.0, 64.0, 31.0, 128.0, 0.0, 240.0, 0.0, 0.0, 0.0, 1.6814199874713874E9, 0.0, 2023-04-13 17:06:27.471
149.0, 20633.543507283153, 23624.363377614427, 3617.8757092804562, -6768.667014678361, 15091.182600400758, 35697.94871782645, 48981.67985459326, -35901.41664760312, -0.088, 1.008, 0.03, 192.0, 0.0, 0.0, 0.0, 0.0, 0.0, 0.0, 0.0, 0.0, 0.0, 1.6814199874714248E9, 0.0, 2023-04-13 17:06:27.471
150.0, 20760.143787878013, 23789.81099007261, 3592.6852932793254, -6792.113994611978, 15055.352754038902, 35685.31998220921, 48946.78878149853, -35895.62754578919, -0.088, 1.008, 0.03, 192.0, 0.0, 0.0, 0.0, 0.0, 0.0, 0.0, 0.0, 0.0, 0.0, 1.681419987471474E9, 0.0, 2023-04-13 17:06:27.471
151.0, 20932.09575797269, 24059.10480727015, 3642.3285177145626, -6815.829195479059, 15023.233297256626, 35704.45307546295, 48941.223197129155, -35855.79673716983, -0.088, 1.008, 0.03, 192.0, 0.0, 0.0, 0.0, 0.0, 0.0, 0.0, 0.0, 0.0, 0.0, 1.681419987471514E9, 0.0, 2023-04-13 17:06:27.471
152.0, 20776.795837497215, 23863.303525841657, 3683.29926530114, -6788.671825965861, 15061.924166908762, 35740.819363691735, 48961.228008416656, -35799.42563765355, -0.088, 1.008, 0.03, 192.0, 0.0, 0.0, 0.0, 0.0, 0.0, 0.0, 0.0, 0.0, 0.0, 1.681419987471553E9, 0.0, 2023-04-13 17:06:27.471
153.0, 20642.350094598543, 23644.412892390836, 3646.083610783054, -6773.405584502886, 15087.069879420982, 35735.87962816711, 48944.57595879745, -35784.51702410186, -0.088, 1.008, 0.03, 192.0, 0.0, 0.0, 0.0, 0.0, 0.0, 0.0, 0.0, 0.0, 0.0, 1.681419987471593E9, 0.0, 2023-04-13 17:06:27.471
154.0, 20718.681301913417, 23729.483631787734, 3594.451081091295, -6766.945930355303, 15078.732678739152, 35697.21111025943, 48903.73932167761, -35801.347887676704, -0.088, 1.008, 0.03, 192.0, 0.0, 0.0, 0.0, 0.0, 0.0, 0.0, 0.0, 0.0, 0.0, 1.6814199874716136E9, 0.0, 2023-04-13 17:06:27.471
155.0, 20923.602095079674, 24048.398321676057, 3645.144837515931, -6812.7670064886825, 14997.864067299852, 35719.07111633672, 48906.08625484542, -35758.05255866677, -0.088, 1.008, 0.03, 192.0, 0.0, 0.0, 0.0, 0.0, 0.0, 0.0, 0.0, 0.0, 0.0, 1.6814199874716327E9, 0.0, 2023-04-13 17:06:27.471
156.0, 20804.73551806635, 23931.521049919254, 3709.137881891475, -6823.652306038417, 14998.199343466682, 35779.93491648852, 48933.42243831426, -35676.49104314936, -0.088, 1.008, 0.03, 192.0, 0.0, 0.0, 0.0, 0.0, 0.0, 0.0, 0.0, 0.0, 0.0, 1.6814199874716516E9, 0.0, 2023-04-13 17:06:27.471
157.0, 20633.87878344998, 23669.558604903057, 3671.7434134177465, -6797.2101923477885, 15040.399436998301, 35776.068064697756, 48916.88214741733, -35657.87204001809, -0.088, 1.008, 0.03, 192.0, 0.0, 0.0, 0.0, 0.0, 0.0, 0.0, 0.0, 0.0, 0.0, 1.681419987471701E9, 0.0, 2023-04-13 17:06:27.471
158.0, 20677.91172002694, 23697.07360232754, 3607.8844795089344, -6769.874008878948, 15055.576271483455, 35734.96320664445, 48876.3360829754, -35680.33554319567, -0.088, 1.004, 0.03, 192.0, 253.0, 64.0, 31.0, 96.0, 0.0, 240.0, 0.0, 0.0, 0.0, 1.6814199874717205E9, 0.0, 2023-04-13 17:06:27.471
159.0, 20895.95298718846, 24003.739536254354, 3624.737694828236, -6786.369596286964, 15012.25859072907, 35719.22757854791, 48862.70151885766, -35675.64167686006, -0.088, 1.004, 0.03, 192.0, 0.0, 0.0, 0.0, 0.0, 0.0, 0.0, 0.0, 0.0, 0.0, 1.6814199874717405E9, 0.0, 2023-04-13 17:06:27.471
160.0, 20839.715998138905, 23959.147806066016, 3689.9824368932773, -6785.1178985974675, 15026.809576369475, 35760.600657534684, 48902.778196666026, -35616.09662963112, -0.088, 1.004, 0.03, 192.0, 0.0, 0.0, 0.0, 0.0, 0.0, 0.0, 0.0, 0.0, 0.0, 1.6814199874717672E9, 0.0, 2023-04-13 17:06:27.471
161.0, 20654.554147071143, 23678.3875439629, 3673.866829141001, -6763.637872175917, 15076.564559526989, 35761.785299990814, 48915.83161542793, -35596.315335788175, -0.088, 1.004, 0.03, 192.0, 0.0, 0.0, 0.0, 0.0, 0.0, 0.0, 0.0, 0.0, 0.0, 1.6814199874717867E9, 0.0, 2023-04-13 17:06:27.471
162.0, 20658.890385495473, 23657.82393906402, 3625.631764606448, -6781.429860762341, 15044.802730655996, 35741.42286079202, 48903.9404873777, -35598.03642011123, -0.088, 1.004, 0.03, 192.0, 0.0, 0.0, 0.0, 0.0, 0.0, 0.0, 0.0, 0.0, 0.0, 1.6814199874718063E9, 0.0, 2023-04-13 17:06:27.471
163.0, 20870.47199850941, 23969.65312596001, 3635.8465118225236, -6839.231471923766, 14964.068229683427, 35747.56959051724, 48890.618847682344, -35574.23181226633, -0.088, 1.004, 0.03, 192.0, 0.0, 0.0, 0.0, 0.0, 0.0, 0.0, 0.0, 0.0, 0.0, 1.6814199874718254E9, 0.0, 2023-04-13 17:06:27.471
164.0, 20868.125065341603, 24004.007757187817, 3686.1602885914194, -6820.098378670023, 14991.739689319098, 35772.51413732936, 48898.97840010863, -35535.58564610311, -0.088, 1.004, 0.03, 192.0, 0.0, 0.0, 0.0, 0.0, 0.0, 0.0, 0.0, 0.0, 0.0, 1.6814199874718585E9, 0.0, 2023-04-13 17:06:27.471
165.0, 20671.250900179257, 23718.08424211553, 3689.0213118816987, -6785.855506164492, 15028.597715925898, 35790.35082940469, 48911.40597002578, -35499.24170961878, -0.088, 1.004, 0.03, 192.0, 0.0, 0.0, 0.0, 0.0, 0.0, 0.0, 0.0, 0.0, 0.0, 1.6814199874718957E9, 0.0, 2023-04-13 17:06:27.471
166.0, 20633.968190427804, 23635.762767286633, 3631.085590253543, -6770.701023423794, 15044.176881811249, 35759.28190461182, 48884.78504237951, -35507.22128238932, -0.088, 1.004, 0.03, 192.0, 0.0, 0.0, 0.0, 0.0, 0.0, 0.0, 0.0, 0.0, 0.0, 1.6814199874719155E9, 0.0, 2023-04-13 17:06:27.471
167.0, 20829.277733478277, 23899.558055348167, 3623.351886672007, -6789.141212599423, 14997.081756243917, 35735.49964851137, 48860.10871650085, -35511.15518941345, -0.088, 1.004, 0.03, 192.0, 0.0, 0.0, 0.0, 0.0, 0.0, 0.0, 0.0, 0.0, 0.0, 1.6814199874719489E9, 0.0, 2023-04-13 17:06:27.471
168.0, 20897.651719767062, 24043.995028018362, 3699.280762586685, -6819.070198425079, 14949.986630676583, 35781.164262433565, 48890.618847682344, -35444.92697059238, -0.088, 0.998, 0.032, 192.0, 253.0, 64.0, 31.0, 48.0, 1.0, 0.0, 0.0, 0.0, 0.0, 1.681419987471968E9, 0.0, 2023-04-13 17:06:27.471
169.0, 20694.96610104634, 23759.211451913292, 3704.823995211601, -6776.356014770987, 15023.233297256626, 35793.524777117345, 48898.84428964189, -35410.0582492421, -0.088, 0.998, 0.032, 192.0, 0.0, 0.0, 0.0, 0.0, 0.0, 0.0, 0.0, 0.0, 0.0, 1.681419987471989E9, 0.0, 2023-04-13 17:06:27.471
170.0, 20619.238390831757, 23608.6724530068, 3638.8416455795345, -6727.0704182470345, 15074.217626359181, 35741.713433469944, 48866.92599855972, -35441.48480194626, -0.088, 0.998, 0.032, 192.0, 0.0, 0.0, 0.0, 0.0, 0.0, 0.0, 0.0, 0.0, 0.0, 1.6814199874720137E9, 0.0, 2023-04-13 17:06:27.472
171.0, 20784.842465501126, 23832.23460104878, 3628.045753007621, -6760.262758763166, 15026.362541480368, 35720.00988960384, 48852.57617861941, -35443.94349383635, -0.088, 0.998, 0.032, 192.0, 0.0, 0.0, 0.0, 0.0, 0.0, 0.0, 0.0, 0.0, 0.0, 1.6814199874720385E9, 0.0, 2023-04-13 17:06:27.472
172.0, 20916.874219998626, 24052.13106300009, 3693.379902050484, -6793.969189401769, 15005.262494714558, 35747.949570172976, 48867.19421949318, -35399.55292934811, -0.088, 0.998, 0.032, 192.0, 0.0, 0.0, 0.0, 0.0, 0.0, 0.0, 0.0, 0.0, 0.0, 1.681419987472058E9, 0.0, 2023-04-13 17:06:27.472
173.0, 20735.333351532623, 23802.23855998976, 3725.2311378992963, -6762.76615414216, 15059.644288974321, 35771.91064022906, 48894.306885517464, -35359.40919630638, -0.088, 0.998, 0.032, 192.0, 0.0, 0.0, 0.0, 0.0, 0.0, 0.0, 0.0, 0.0, 0.0, 1.681419987472104E9, 0.0, 2023-04-13 17:06:27.472
174.0, 20631.50949853772, 23635.04751146406, 3693.178736350386, -6780.915770639869, 15045.249765545102, 35779.51023334387, 48892.60815293886, -35327.40149824637, -0.088, 0.998, 0.032, 192.0, 0.0, 0.0, 0.0, 0.0, 0.0, 0.0, 0.0, 0.0, 0.0, 1.6814199874721236E9, 0.0, 2023-04-13 17:06:27.472
175.0, 20748.699694716895, 23779.216263200793, 3645.301299727118, -6780.8934188954145, 15036.64434392981, 35742.07106138123, 48847.56938786142, -35339.71730944125, -0.088, 0.998, 0.032, 192.0, 0.0, 0.0, 0.0, 0.0, 0.0, 0.0, 0.0, 0.0, 0.0, 1.6814199874721425E9, 0.0, 2023-04-13 17:06:27.472
176.0, 20927.24542942589, 24062.23405149389, 3703.6393527554696, -6829.776684019171, 14980.072078713427, 35766.30035237078, 48851.749164074565, -35290.83404431749, -0.088, 0.998, 0.032, 192.0, 0.0, 0.0, 0.0, 0.0, 0.0, 0.0, 0.0, 0.0, 0.0, 1.6814199874721615E9, 0.0, 2023-04-13 17:06:27.472
177.0, 20772.079619417145, 23876.87103472603, 3754.5119231357485, -6828.949669474325, 15009.822250583442, 35816.43531518404, 48874.614998652345, -35214.905168402816, -0.088, 0.998, 0.032, 192.0, 0.0, 0.0, 0.0, 0.0, 0.0, 0.0, 0.0, 0.0, 0.0, 1.6814199874721808E9, 0.0, 2023-04-13 17:06:27.472
178.0, 20633.789376472163, 23645.95516275825, 3705.181623122886, -6792.0469393786125, 15075.379917070857, 35793.48007362844, 48840.43918138018, -35211.23948231214, -0.09, 1.002, 0.032, 192.0, 253.0, 48.0, 31.0, 80.0, 1.0, 0.0, 0.0, 0.0, 0.0, 1.6814199874722E9, 0.0, 2023-04-13 17:06:27.472
179.0, 20709.76295587575, 23719.31358806057, 3644.921320071378, -6769.382270500931, 15089.662681777798, 35732.772735687824, 48788.896058666236, -35249.572724052996, -0.09, 1.002, 0.032, 192.0, 0.0, 0.0, 0.0, 0.0, 0.0, 0.0, 0.0, 0.0, 0.0, 1.68141998747222E9, 0.0, 2023-04-13 17:06:27.472
180.0, 20920.316388644744, 24033.690873824464, 3687.657855469925, -6812.208212877299, 15030.341151993412, 35734.538523499796, 48784.425709775176, -35225.94693016374, -0.09, 1.002, 0.032, 192.0, 0.0, 0.0, 0.0, 0.0, 0.0, 0.0, 0.0, 0.0, 0.0, 1.6814199874722393E9, 0.0, 2023-04-13 17:06:27.472
181.0, 20809.608198357608, 23923.65323587099, 3755.271882447229, -6838.337402145553, 15013.845564585396, 35794.776474806844, 48816.94749795765, -35141.94907450069, -0.09, 1.002, 0.032, 192.0, 0.0, 0.0, 0.0, 0.0, 0.0, 0.0, 0.0, 0.0, 0.0, 1.681419987472258E9, 0.0, 2023-04-13 17:06:27.472
182.0, 20638.438539318864, 23668.73159035821, 3722.370114609017, -6823.182919404855, 15044.378047511345, 35799.17976846454, 48798.23908784856, -35112.9365101977, -0.09, 1.002, 0.032, 192.0, 0.0, 0.0, 0.0, 0.0, 0.0, 0.0, 0.0, 0.0, 0.0, 1.6814199874722776E9, 0.0, 2023-04-13 17:06:27.472
183.0, 20673.039039735682, 23682.36615447595, 3655.761916132202, -6798.350131315009, 15060.292489563524, 35746.74257597239, 48747.63473840174, -35138.66336806576, -0.09, 1.002, 0.032, 192.0, 0.0, 0.0, 0.0, 0.0, 0.0, 0.0, 0.0, 0.0, 0.0, 1.6814199874722967E9, 0.0, 2023-04-13 17:06:27.472
184.0, 20896.84705696667, 24002.823114731684, 3681.8464019115454, -6830.044904952634, 14999.138116733804, 35737.51130551235, 48733.1508079947, -35121.139600412804, -0.09, 1.002, 0.032, 192.0, 0.0, 0.0, 0.0, 0.0, 0.0, 0.0, 0.0, 0.0, 0.0, 1.681419987472316E9, 0.0, 2023-04-13 17:06:27.472
185.0, 20839.85010860564, 23969.139035837536, 3747.113495721042, -6833.420018365386, 14999.786317323009, 35781.23131766693, 48754.74259313853, -35052.09506179036, -0.09, 1.002, 0.032, 192.0, 0.0, 0.0, 0.0, 0.0, 0.0, 0.0, 0.0, 0.0, 0.0, 1.681419987472336E9, 0.0, 2023-04-13 17:06:27.472
186.0, 20642.75242599874, 23673.403104949368, 3717.4080273399386, -6773.047956591601, 15070.79780945752, 35763.327570358226, 48736.056534773896, -35042.75203260804, -0.09, 1.002, 0.032, 192.0, 0.0, 0.0, 0.0, 0.0, 0.0, 0.0, 0.0, 0.0, 0.0, 1.6814199874723556E9, 0.0, 2023-04-13 17:06:27.472
187.0, 20640.204327130836, 23641.551869100556, 3662.5791981910706, -6762.900264608892, 15062.818236686975, 35727.8330001632, 48703.57945008033, -35050.01634955601, -0.09, 1.002, 0.032, 192.0, 0.0, 0.0, 0.0, 0.0, 0.0, 0.0, 0.0, 0.0, 0.0, 1.6814199874723752E9, 0.0, 2023-04-13 17:06:27.472
188.0, 20847.874384865092, 23939.7017883899, 3666.758974404213, -6787.420128276364, 15009.576381394432, 35707.336450497685, 48675.90799044466, -35042.50616341903, -0.094, 1.004, 0.036000000000000004, 192.0, 253.0, 16.0, 31.0, 96.0, 1.0, 32.0, 0.0, 0.0, 0.0, 1.6814199874724126E9, 0.0, 2023-04-13 17:06:27.472
189.0, 20851.36125700012, 23990.70846923691, 3733.4789316033048, -6798.081910381546, 14987.49285787259, 35740.79701194728, 48694.795214509395, -34983.408151079195, -0.094, 1.004, 0.036000000000000004, 192.0, 0.0, 0.0, 0.0, 0.0, 0.0, 0.0, 0.0, 0.0, 0.0, 1.681419987472433E9, 0.0, 2023-04-13 17:06:27.472
190.0, 20642.95359169884, 23703.287387286116, 3735.1553124374527, -6776.244256048711, 15020.841660599908, 35758.65605576707, 48706.686342559624, -34935.15073480019, -0.094, 1.004, 0.036000000000000004, 192.0, 0.0, 0.0, 0.0, 0.0, 0.0, 0.0, 0.0, 0.0, 0.0, 1.6814199874724526E9, 0.0, 2023-04-13 17:06:27.472
191.0, 20593.489181219244, 23602.726888981688, 3669.240018038752, -6744.57183415554, 15030.40820722678, 35710.21982553242, 48671.86232469825, -34950.88636289673, -0.094, 1.004, 0.036000000000000004, 192.0, 0.0, 0.0, 0.0, 0.0, 0.0, 0.0, 0.0, 0.0, 0.0, 1.6814199874724717E9, 0.0, 2023-04-13 17:06:27.472
192.0, 20782.003793955304, 23870.500787556266, 3665.9766633482773, -6782.569799729562, 14957.988555191585, 35691.51141542332, 48652.72923144451, -34938.16822030165, -0.094, 1.004, 0.036000000000000004, 192.0, 0.0, 0.0, 0.0, 0.0, 0.0, 0.0, 0.0, 0.0, 0.0, 1.6814199874724946E9, 0.0, 2023-04-13 17:06:27.472
193.0, 20851.852995378136, 24019.363405628614, 3735.378829882006, -6810.554183787606, 14934.295706068959, 35728.436497263494, 48675.572714277834, -34872.90112649216, -0.094, 1.004, 0.036000000000000004, 192.0, 0.0, 0.0, 0.0, 0.0, 0.0, 0.0, 0.0, 0.0, 0.0, 1.681419987472514E9, 0.0, 2023-04-13 17:06:27.472
194.0, 20645.077007422093, 23727.337864320027, 3737.4128386274388, -6755.390078471909, 15014.247895985593, 35728.8835321526, 48684.803984737875, -34845.52023953441, -0.094, 1.004, 0.036000000000000004, 192.0, 0.0, 0.0, 0.0, 0.0, 0.0, 0.0, 0.0, 0.0, 0.0, 1.6814199874725327E9, 0.0, 2023-04-13 17:06:27.472
195.0, 20565.147169249914, 23587.75122019663, 3688.2613525702186, -6755.166561027356, 15003.116727246848, 35705.369496985615, 48671.661158998155, -34840.91578017661, -0.094, 1.004, 0.036000000000000004, 192.0, 0.0, 0.0, 0.0, 0.0, 0.0, 0.0, 0.0, 0.0, 0.0, 1.681419987472552E9, 0.0, 2023-04-13 17:06:27.472
196.0, 20720.648255425484, 23796.784734342666, 3662.9591778468107, -6767.929407111336, 14961.96716570463, 35677.273354205296, 48644.54849297387, -34840.91578017661, -0.094, 1.004, 0.036000000000000004, 192.0, 0.0, 0.0, 0.0, 0.0, 0.0, 0.0, 0.0, 0.0, 0.0, 1.6814199874725716E9, 0.0, 2023-04-13 17:06:27.472
197.0, 20844.298105752245, 24017.463507349912, 3722.705390775847, -6803.066349395079, 14919.632961706277, 35710.28688076579, 48652.572769233324, -34784.254107982415, -0.094, 1.004, 0.036000000000000004, 192.0, 0.0, 0.0, 0.0, 0.0, 0.0, 0.0, 0.0, 0.0, 0.0, 1.6814199874725907E9, 0.0, 2023-04-13 17:06:27.472
198.0, 20660.455007607343, 23758.697361790822, 3745.6159288425365, -6756.641776161406, 14989.504514873566, 35727.90005539657, 48667.90606592966, -34743.10454644019, -0.092, 0.998, 0.036000000000000004, 192.0, 253.0, 32.0, 31.0, 48.0, 1.0, 32.0, 0.0, 0.0, 0.0, 1.6814199874726102E9, 0.0, 2023-04-13 17:06:27.472
199.0, 20550.46207314278, 23568.193443798238, 3696.8444224410564, -6740.973203298236, 15008.950532549685, 35700.85444460565, 48649.30941454285, -34743.39511911811, -0.092, 0.998, 0.036000000000000004, 192.0, 0.0, 0.0, 0.0, 0.0, 0.0, 0.0, 0.0, 0.0, 0.0, 1.6814199874726384E9, 0.0, 2023-04-13 17:06:27.472
200.0, 20665.819426276616, 23715.46908801426, 3659.561712689604, -6751.880854592426, 14974.975880977618, 35662.43179588697, 48619.782760117385, -34753.78868028983, -0.092, 0.998, 0.036000000000000004, 192.0, 0.0, 0.0, 0.0, 0.0, 0.0, 0.0, 0.0, 0.0, 0.0, 1.681419987472658E9, 0.0, 2023-04-13 17:06:27.472
201.0, 20845.527451697286, 23999.202132129925, 3717.6986000178576, -6802.686369739338, 14917.531897727478, 35681.54253739626, 48625.39304797567, -34707.65467973408, -0.092, 0.998, 0.036000000000000004, 192.0, 0.0, 0.0, 0.0, 0.0, 0.0, 0.0, 0.0, 0.0, 0.0, 1.681419987472678E9, 0.0, 2023-04-13 17:06:27.472
202.0, 20691.4345254224, 23809.547580426646, 3763.787897084701, -6804.474509295763, 14941.6270782503, 35725.03903210629, 48652.61747272223, -34637.87253354461, -0.092, 0.998, 0.036000000000000004, 192.0, 0.0, 0.0, 0.0, 0.0, 0.0, 0.0, 0.0, 0.0, 0.0, 1.6814199874726973E9, 0.0, 2023-04-13 17:06:27.472
203.0, 20547.53399461913, 23574.921318879286, 3716.0445709281653, -6776.065442093068, 14986.487029372101, 35700.899148094555, 48634.87018762472, -34634.58682710968, -0.092, 0.998, 0.036000000000000004, 192.0, 0.0, 0.0, 0.0, 0.0, 0.0, 0.0, 0.0, 0.0, 0.0, 1.6814199874727163E9, 0.0, 2023-04-13 17:06:27.472
204.0, 20616.51147800821, 23667.032857779606, 3678.046605354143, -6804.653323251406, 14945.739799230076, 35676.82631931619, 48611.959649558026, -34632.396356153055, -0.092, 0.998, 0.036000000000000004, 192.0, 0.0, 0.0, 0.0, 0.0, 0.0, 0.0, 0.0, 0.0, 0.0, 1.6814199874727585E9, 0.0, 2023-04-13 17:06:27.472
205.0, 20820.851125818626, 23983.26533833329, 3716.5810127950926, -6852.64251859695, 14889.726327625076, 35684.20239498644, 48608.51748091191, -34598.98049819237, -0.092, 0.998, 0.036000000000000004, 192.0, 0.0, 0.0, 0.0, 0.0, 0.0, 0.0, 0.0, 0.0, 0.0, 1.68141998747279E9, 0.0, 2023-04-13 17:06:27.472
206.0, 20713.42864196642, 23863.86231945304, 3766.9394930528993, -6844.327669659576, 14922.493984996556, 35719.11581982563, 48628.96932708852, -34537.15557302899, -0.092, 0.998, 0.036000000000000004, 192.0, 0.0, 0.0, 0.0, 0.0, 0.0, 0.0, 0.0, 0.0, 0.0, 1.6814199874728096E9, 0.0, 2023-04-13 17:06:27.472
207.0, 20540.269677671156, 23587.482999263168, 3724.78410301019, -6797.076081881057, 14982.597825836878, 35696.0264678033, 48613.39016120317, -34534.36160497208, -0.092, 0.998, 0.036000000000000004, 192.0, 0.0, 0.0, 0.0, 0.0, 0.0, 0.0, 0.0, 0.0, 0.0, 1.6814199874728324E9, 0.0, 2023-04-13 17:06:27.472
208.0, 20572.299727475613, 23608.53834254007, 3676.236114053263, -6806.597925019018, 14953.697020256164, 35662.00711274232, 48587.6185998462, -34540.64244516402, -0.094, 1.002, 0.032, 192.0, 253.0, 16.0, 31.0, 80.0, 1.0, 0.0, 0.0, 0.0, 0.0, 1.6814199874728649E9, 0.0, 2023-04-13 17:06:27.472
209.0, 20781.288538132732, 23917.93118929043, 3686.8755444139892, -6833.755294532215, 14906.4677842221, 35639.05187118672, 48562.00350070042, -34538.56373292968, -0.094, 1.002, 0.032, 192.0, 0.0, 0.0, 0.0, 0.0, 0.0, 0.0, 0.0, 0.0, 0.0, 1.6814199874729033E9, 0.0, 2023-04-13 17:06:27.472
210.0, 20728.359607262566, 23890.30443314367, 3753.4166876574386, -6845.713477815804, 14899.963426585608, 35675.70873209342, 48592.20070745954, -34476.649400788476, -0.094, 1.002, 0.032, 192.0, 0.0, 0.0, 0.0, 0.0, 0.0, 0.0, 0.0, 0.0, 0.0, 1.6814199874729233E9, 0.0, 2023-04-13 17:06:27.472
211.0, 20533.20652642328, 23596.088420878463, 3730.0367629571874, -6804.385102317942, 14968.315061129935, 35663.01294124281, 48588.37855915768, -34463.77479598222, -0.094, 1.002, 0.032, 192.0, 0.0, 0.0, 0.0, 0.0, 0.0, 0.0, 0.0, 0.0, 0.0, 1.6814199874729428E9, 0.0, 2023-04-13 17:06:27.472
212.0, 20523.93055247433, 23557.084626803953, 3675.3643960195063, -6808.319009342076, 14954.904014456752, 35623.04802215672, 48562.98697745645, -34474.45892983185, -0.094, 1.002, 0.032, 192.0, 0.0, 0.0, 0.0, 0.0, 0.0, 0.0, 0.0, 0.0, 0.0, 1.6814199874729617E9, 0.0, 2023-04-13 17:06:27.472
213.0, 20726.52676421723, 23848.976057645807, 3672.659834940414, -6837.443332367341, 14910.781670901975, 35596.67296369946, 48539.07061088927, -34473.14017690899, -0.094, 1.002, 0.032, 192.0, 0.0, 0.0, 0.0, 0.0, 0.0, 0.0, 0.0, 0.0, 0.0, 1.6814199874729807E9, 0.0, 2023-04-13 17:06:27.472
214.0, 20737.25560155578, 23903.2907966722, 3732.540158336182, -6838.40445737892, 14916.079034337883, 35622.39982156752, 48565.35626236871, -34421.73116466179, -0.094, 1.002, 0.032, 192.0, 0.0, 0.0, 0.0, 0.0, 0.0, 0.0, 0.0, 0.0, 0.0, 1.6814199874730077E9, 0.0, 2023-04-13 17:06:27.473
215.0, 20531.798366522595, 23614.752127498643, 3735.378829882006, -6819.897212969925, 14954.05464816745, 35638.33661536415, 48582.83532653276, -34378.36878041849, -0.094, 1.002, 0.032, 192.0, 0.0, 0.0, 0.0, 0.0, 0.0, 0.0, 0.0, 0.0, 0.0, 1.6814199874730265E9, 0.0, 2023-04-13 17:06:27.473
216.0, 20484.01033687715, 23521.053614741995, 3676.3478727755396, -6809.056616909101, 14960.514302315034, 35607.08887661563, 48556.39321284214, -34383.28616419866, -0.094, 1.002, 0.032, 192.0, 0.0, 0.0, 0.0, 0.0, 0.0, 0.0, 0.0, 0.0, 0.0, 1.6814199874730456E9, 0.0, 2023-04-13 17:06:27.473
217.0, 20671.34030715708, 23778.098675978028, 3659.24878826723, -6827.608564807006, 14917.196621560648, 35577.785739634724, 48532.36508755268, -34390.70694335782, -0.094, 1.002, 0.032, 192.0, 0.0, 0.0, 0.0, 0.0, 0.0, 0.0, 0.0, 0.0, 0.0, 1.681419987473065E9, 0.0, 2023-04-13 17:06:27.473
218.0, 20745.570450493153, 23939.07593954515, 3729.276803645707, -6873.675510129394, 14856.958670253596, 35626.177266380466, 48556.92965470906, -34318.33199481154, -0.09, 1.002, 0.03, 192.0, 253.0, 48.0, 31.0, 80.0, 0.0, 240.0, 0.0, 0.0, 0.0, 1.681419987473087E9, 0.0, 2023-04-13 17:06:27.473
219.0, 20540.96258174927, 23656.706351841254, 3731.6907920468802, -6826.468625839785, 14933.267525824014, 35638.69424327544, 48568.552561825825, -34283.150349038886, -0.09, 1.002, 0.03, 192.0, 0.0, 0.0, 0.0, 0.0, 0.0, 0.0, 0.0, 0.0, 0.0, 1.681419987473136E9, 0.0, 2023-04-13 17:06:27.473
220.0, 20452.360266728436, 23501.764059277066, 3663.137991802453, -6793.34334055702, 14970.080848941905, 35594.28132704274, 48543.876235947166, -34305.16681732736, -0.09, 1.002, 0.03, 192.0, 0.0, 0.0, 0.0, 0.0, 0.0, 0.0, 0.0, 0.0, 0.0, 1.6814199874731555E9, 0.0, 2023-04-13 17:06:27.473
221.0, 20607.92840813737, 23708.31652978856, 3638.394610690428, -6812.789358233137, 14917.442490749658, 35563.21240224986, 48530.42048578507, -34314.822770932056, -0.09, 1.002, 0.03, 192.0, 0.0, 0.0, 0.0, 0.0, 0.0, 0.0, 0.0, 0.0, 0.0, 1.6814199874731755E9, 0.0, 2023-04-13 17:06:27.473
222.0, 20745.615153982064, 23949.13422455004, 3707.30503884614, -6875.307187474631, 14840.597193312311, 35610.28517607274, 48551.87816046216, -34247.54402012158, -0.09, 1.002, 0.03, 192.0, 0.0, 0.0, 0.0, 0.0, 0.0, 0.0, 0.0, 0.0, 0.0, 1.6814199874731948E9, 0.0, 2023-04-13 17:06:27.473
223.0, 20560.028619769648, 23717.301931059592, 3738.8657020170335, -6856.710536087816, 14880.85268507632, 35656.59799058414, 48577.15798344112, -34179.460606510715, -0.09, 1.002, 0.03, 192.0, 0.0, 0.0, 0.0, 0.0, 0.0, 0.0, 0.0, 0.0, 0.0, 1.681419987473214E9, 0.0, 2023-04-13 17:06:27.473
224.0, 20443.911307324328, 23526.306274688992, 3685.1991635798413, -6820.858337981504, 14934.027485135495, 35637.062565930195, 48563.36695711219, -34176.77839717608, -0.09, 1.002, 0.03, 192.0, 0.0, 0.0, 0.0, 0.0, 0.0, 0.0, 0.0, 0.0, 0.0, 1.6814199874732327E9, 0.0, 2023-04-13 17:06:27.473
225.0, 20560.386247680934, 23658.29332569758, 3630.1244652419646, -6800.898230182914, 14940.822415449908, 35582.21138503688, 48527.67122121707, -34210.26131037013, -0.09, 1.002, 0.03, 192.0, 0.0, 0.0, 0.0, 0.0, 0.0, 0.0, 0.0, 0.0, 0.0, 1.6814199874732516E9, 0.0, 2023-04-13 17:06:27.473
226.0, 20740.2954388017, 23930.559924907677, 3672.525724473682, -6819.2266606362655, 14891.80503985942, 35579.50682395778, 48532.14157010813, -34194.43627529577, -0.09, 1.002, 0.03, 192.0, 0.0, 0.0, 0.0, 0.0, 0.0, 0.0, 0.0, 0.0, 0.0, 1.681419987473271E9, 0.0, 2023-04-13 17:06:27.473
227.0, 20587.901245105415, 23742.51469880518, 3717.788006995679, -6801.278209838654, 14927.456072265635, 35610.88867317303, 48560.59534079974, -34142.759042115096, -0.09, 1.002, 0.03, 192.0, 0.0, 0.0, 0.0, 0.0, 0.0, 0.0, 0.0, 0.0, 0.0, 1.68141998747329E9, 0.0, 2023-04-13 17:06:27.473
228.0, 20442.301981723547, 23512.336434404428, 3680.795869922146, -6787.308369554087, 14949.181967876193, 35595.33185903214, 48546.29022434833, -34136.746422856624, -0.092, 1.004, 0.03, 192.0, 253.0, 32.0, 31.0, 96.0, 0.0, 240.0, 0.0, 0.0, 0.0, 1.6814199874733095E9, 0.0, 2023-04-13 17:06:27.473
229.0, 20515.794517492595, 23612.20402863074, 3651.5150846856936, -6835.386971877453, 14893.481420693568, 35587.88872812852, 48525.346639793715, -34120.13907672633, -0.092, 1.004, 0.03, 192.0, 0.0, 0.0, 0.0, 0.0, 0.0, 0.0, 0.0, 0.0, 0.0, 1.68141998747333E9, 0.0, 2023-04-13 17:06:27.473
230.0, 20718.234267024312, 23916.098346245093, 3673.240980296252, -6848.663908083905, 14875.84589431833, 35579.260954768775, 48503.01724708286, -34107.108009708885, -0.092, 1.004, 0.03, 192.0, 0.0, 0.0, 0.0, 0.0, 0.0, 0.0, 0.0, 0.0, 0.0, 1.681419987473349E9, 0.0, 2023-04-13 17:06:27.473
231.0, 20621.004178643725, 23809.81580136011, 3732.0260682137096, -6841.109018458012, 14882.663176377198, 35625.97610068037, 48535.13670386514, -34037.8846571308, -0.092, 1.004, 0.03, 192.0, 0.0, 0.0, 0.0, 0.0, 0.0, 0.0, 0.0, 0.0, 0.0, 1.6814199874733684E9, 0.0, 2023-04-13 17:06:27.473
232.0, 20446.459406192233, 23554.84945235842, 3703.0358556551764, -6839.522044601685, 14904.813755132409, 35637.37549035257, 48527.17948283905, -33998.43382816718, -0.092, 1.004, 0.03, 192.0, 0.0, 0.0, 0.0, 0.0, 0.0, 0.0, 0.0, 0.0, 0.0, 1.6814199874733877E9, 0.0, 2023-04-13 17:06:27.473
233.0, 20473.505016983156, 23569.981583354664, 3636.427657178361, -6827.608564807006, 14906.356025499825, 35597.365867777575, 48487.169860264046, -34010.079087028396, -0.092, 1.004, 0.03, 192.0, 0.0, 0.0, 0.0, 0.0, 0.0, 0.0, 0.0, 0.0, 0.0, 1.6814199874734066E9, 0.0, 2023-04-13 17:06:27.473
234.0, 20687.72413584282, 23876.222834136825, 3639.5569014021044, -6836.817483522593, 14873.476609406069, 35573.874184355045, 48463.3876041636, -34008.08978177187, -0.092, 1.004, 0.03, 192.0, 0.0, 0.0, 0.0, 0.0, 0.0, 0.0, 0.0, 0.0, 0.0, 1.681419987473426E9, 0.0, 2023-04-13 17:06:27.473
235.0, 20640.69606550885, 23846.29384831117, 3695.9727044072993, -6830.134311930456, 14880.964443798595, 35608.206463838396, 48492.26605799986, -33949.37174908778, -0.092, 1.004, 0.03, 192.0, 0.0, 0.0, 0.0, 0.0, 0.0, 0.0, 0.0, 0.0, 0.0, 1.6814199874734716E9, 0.0, 2023-04-13 17:06:27.473
236.0, 20444.4253974468, 23559.47626346067, 3676.2584657977186, -6809.548355287118, 14927.679589710187, 35609.83814118363, 48497.67518015805, -33922.30378655241, -0.092, 1.004, 0.03, 192.0, 0.0, 0.0, 0.0, 0.0, 0.0, 0.0, 0.0, 0.0, 0.0, 1.6814199874734917E9, 0.0, 2023-04-13 17:06:27.473
237.0, 20427.259257705125, 23518.192591451716, 3614.5229476121604, -6818.801977491615, 14913.03919709196, 35578.56805069066, 48467.43326991001, -33926.99765288802, -0.092, 1.004, 0.03, 192.0, 0.0, 0.0, 0.0, 0.0, 0.0, 0.0, 0.0, 0.0, 0.0, 1.6814199874735107E9, 0.0, 2023-04-13 17:06:27.473
238.0, 20631.397739815446, 23822.131612554982, 3618.1662819583753, -6874.368414207508, 14837.378542110748, 35579.50682395778, 48450.7365168019, -33900.868463619765, -0.094, 1.006, 0.032, 192.0, 253.0, 16.0, 31.0, 112.0, 1.0, 0.0, 0.0, 0.0, 0.0, 1.6814199874735303E9, 0.0, 2023-04-13 17:06:27.473
239.0, 20637.097434651547, 23878.659174282453, 3670.8046401506235, -6868.624015882495, 14843.45821660259, 35614.554359263704, 48469.489630399905, -33842.4857071025, -0.094, 1.006, 0.032, 192.0, 0.0, 0.0, 0.0, 0.0, 0.0, 0.0, 0.0, 0.0, 0.0, 1.6814199874735508E9, 0.0, 2023-04-13 17:06:27.473
240.0, 20432.131937996382, 23574.89896713483, 3658.3770702334728, -6812.856413466503, 14908.792365645453, 35612.83327494065, 48479.81613633825, -33819.23989286899, -0.094, 1.006, 0.032, 192.0, 0.0, 0.0, 0.0, 0.0, 0.0, 0.0, 0.0, 0.0, 0.0, 1.6814199874735696E9, 0.0, 2023-04-13 17:06:27.473
241.0, 20387.562559552498, 23488.621233537346, 3603.123557939954, -6823.49584382723, 14892.296778237436, 35590.1015508296, 48463.45465939697, -33811.99792766546, -0.094, 1.006, 0.032, 192.0, 0.0, 0.0, 0.0, 0.0, 0.0, 0.0, 0.0, 0.0, 0.0, 1.681419987951056E9, 0.0, 2023-04-13 17:06:27.951
242.0, 20568.410523940387, 23737.865535958474, 3572.4569645472725, -6825.909832228403, 14886.395917701235, 35550.76248058826, 48429.59176654718, -33826.280692372406, -0.094, 1.006, 0.032, 192.0, 0.0, 0.0, 0.0, 0.0, 0.0, 0.0, 0.0, 0.0, 0.0, 1.6814199879512575E9, 0.0, 2023-04-13 17:06:27.951
243.0, 20654.643554048962, 23894.81948552364, 3633.276061210163, -6836.504559100218, 14865.005298257507, 35575.5952686781, 48458.87255178363, -33777.33037201528, -0.094, 1.006, 0.032, 192.0, 0.0, 0.0, 0.0, 0.0, 0.0, 0.0, 0.0, 0.0, 0.0, 1.681419987951295E9, 0.0, 2023-04-13 17:06:27.951
244.0, 20455.33304874099, 23620.518877568113, 3644.183712504353, -6814.421035578374, 14910.781670901975, 35593.56607122017, 48488.17568876454, -33732.179848215565, -0.094, 1.006, 0.032, 192.0, 0.0, 0.0, 0.0, 0.0, 0.0, 0.0, 0.0, 0.0, 0.0, 1.6814199879513304E9, 0.0, 2023-04-13 17:06:27.951
245.0, 20371.670469244775, 23474.427875808226, 3588.550220555094, -6797.590172003529, 14920.258810551026, 35564.777024361734, 48481.40311019458, -33732.71629008249, -0.094, 1.006, 0.032, 192.0, 0.0, 0.0, 0.0, 0.0, 0.0, 0.0, 0.0, 0.0, 0.0, 1.681419987951365E9, 0.0, 2023-04-13 17:06:27.951
246.0, 20518.20850589377, 23673.44780843828, 3556.0954876059877, -6804.407454062397, 14886.172400256683, 35531.584683845605, 48463.36525241915, -33740.60645587521, -0.094, 1.006, 0.032, 192.0, 0.0, 0.0, 0.0, 0.0, 0.0, 0.0, 0.0, 0.0, 0.0, 1.6814199879514E9, 0.0, 2023-04-13 17:06:27.951
247.0, 20650.396722602454, 23895.31122390166, 3604.956400985289, -6820.4560065813075, 14852.644783573722, 35541.59826536158, 48480.88902007211, -33708.15172292611, -0.094, 1.006, 0.032, 192.0, 0.0, 0.0, 0.0, 0.0, 0.0, 0.0, 0.0, 0.0, 0.0, 1.6814199879514344E9, 0.0, 2023-04-13 17:06:27.951
248.0, 20469.90638612585, 23664.373000189426, 3641.792075847635, -6815.918602456881, 14869.788571570942, 35579.66328616897, 48527.04537237232, -33648.0925855747, -0.092, 1.002, 0.034, 192.0, 253.0, 32.0, 31.0, 80.0, 1.0, 16.0, 0.0, 0.0, 0.0, 1.6814199879514687E9, 0.0, 2023-04-13 17:06:27.951
249.0, 20358.102960360404, 23490.69994577169, 3603.3023718955965, -6842.874806269981, 14863.440676145636, 35586.41351299447, 48530.91222416308, -33616.46486717044, -0.092, 1.002, 0.034, 192.0, 0.0, 0.0, 0.0, 0.0, 0.0, 0.0, 0.0, 0.0, 0.0, 1.6814199879515057E9, 0.0, 2023-04-13 17:06:27.951
250.0, 20470.599290203965, 23625.168040414817, 3548.7417636801915, -6843.411248136908, 14866.681679091655, 35545.08513749661, 48497.20579352448, -33634.100393545676, -0.092, 1.002, 0.034, 192.0, 0.0, 0.0, 0.0, 0.0, 0.0, 0.0, 0.0, 0.0, 0.0, 1.6814199879515424E9, 0.0, 2023-04-13 17:06:27.951
251.0, 20653.883594737483, 23900.40742163747, 3584.571610042049, -6861.225588467788, 14844.776969525454, 35541.12887872802, 48497.83164236923, -33615.302576458766, -0.092, 1.002, 0.034, 192.0, 0.0, 0.0, 0.0, 0.0, 0.0, 0.0, 0.0, 0.0, 0.0, 1.6814199879517207E9, 0.0, 2023-04-13 17:06:27.951
252.0, 20503.881037697916, 23704.628491953434, 3618.4568546362943, -6819.383122847453, 14907.741833656053, 35555.16577424595, 48526.41952352757, -33578.22103240741, -0.092, 1.002, 0.034, 192.0, 0.0, 0.0, 0.0, 0.0, 0.0, 0.0, 0.0, 0.0, 0.0, 1.6814199879517553E9, 0.0, 2023-04-13 17:06:27.951
253.0, 20366.574271508965, 23486.564873047457, 3600.4860520942275, -6840.617280079995, 14893.771993371487, 35566.743977873804, 48536.23193934345, -33538.99372088834, -0.092, 1.002, 0.034, 192.0, 0.0, 0.0, 0.0, 0.0, 0.0, 0.0, 0.0, 0.0, 0.0, 1.6814199879517887E9, 0.0, 2023-04-13 17:06:27.951
254.0, 20435.50705140913, 23561.867900117388, 3553.8826649049124, -6858.342213433053, 14883.154914755216, 35544.436936907405, 48506.70528491799, -33533.919874896994, -0.092, 1.002, 0.034, 192.0, 0.0, 0.0, 0.0, 0.0, 0.0, 0.0, 0.0, 0.0, 0.0, 1.6814199879518237E9, 0.0, 2023-04-13 17:06:27.951
255.0, 20643.13240565448, 23862.521214785724, 3578.2684181056525, -6860.242111711755, 14863.686545334644, 35530.98118674531, 48498.770415636354, -33523.05692709171, -0.092, 1.002, 0.034, 192.0, 0.0, 0.0, 0.0, 0.0, 0.0, 0.0, 0.0, 0.0, 0.0, 1.6814199879518576E9, 0.0, 2023-04-13 17:06:27.951
0.0, 20544.225936439747, 23758.8091205131, 3636.114732755987, -6844.528835359673, 14874.840065817842, 35566.408701706976, 48542.043392901825, -33465.07650197465, -0.092, 1.002, 0.034, 192.0, 0.0, 0.0, 0.0, 0.0, 0.0, 0.0, 0.0, 0.0, 0.0, 1.6814199879519062E9, 0.0, 2023-04-13 17:06:27.951
1.0, 20369.07766688796, 23503.55219883349, 3610.8572615214903, -6818.556108302607, 14914.939095370662, 35562.63125689403, 48550.715869750486, -33442.411833096965, -0.092, 1.002, 0.034, 192.0, 0.0, 0.0, 0.0, 0.0, 0.0, 0.0, 0.0, 0.0, 0.0, 1.6814199879519563E9, 0.0, 2023-04-13 17:06:27.951
2.0, 20404.32636789398, 23526.820364811465, 3564.455040032273, -6831.20719566431, 14878.304586208415, 35538.44666939339, 48535.36022130969, -33442.61299879706, -0.092, 1.002, 0.036000000000000004, 192.0, 253.0, 32.0, 31.0, 80.0, 1.0, 32.0, 0.0, 0.0, 0.0, 1.6814199879519897E9, 0.0, 2023-04-13 17:06:27.951
3.0, 20626.50270777973, 23840.504746497245, 3580.123612895443, -6863.036079768668, 14815.987922667018, 35531.919960012434, 48515.93655537803, -33427.23499861181, -0.092, 1.002, 0.036000000000000004, 192.0, 0.0, 0.0, 0.0, 0.0, 0.0, 0.0, 0.0, 0.0, 0.0, 1.6814199879520247E9, 0.0, 2023-04-13 17:06:27.952
4.0, 20581.06161130209, 23813.794411873154, 3636.2711949671743, -6857.515198888207, 14822.536983792423, 35561.71483537136, 48531.69453521902, -33375.75893113124, -0.092, 1.002, 0.036000000000000004, 192.0, 0.0, 0.0, 0.0, 0.0, 0.0, 0.0, 0.0, 0.0, 0.0, 1.681419987952058E9, 0.0, 2023-04-13 17:06:27.952
5.0, 20393.21755089969, 23539.158527750795, 3628.3810291744508, -6844.193559192844, 14847.660344560189, 35575.90819310048, 48538.064782388785, -33336.93395101237, -0.092, 1.002, 0.036000000000000004, 192.0, 0.0, 0.0, 0.0, 0.0, 0.0, 0.0, 0.0, 0.0, 0.0, 1.6814199879520907E9, 0.0, 2023-04-13 17:06:27.952
6.0, 20382.84634147243, 23500.802934265488, 3567.964263911756, -6840.058486468612, 14847.258013159993, 35548.1920299759, 48505.475938972944, -33338.677387079886, -0.092, 1.002, 0.036000000000000004, 192.0, 0.0, 0.0, 0.0, 0.0, 0.0, 0.0, 0.0, 0.0, 0.0, 1.681419987952124E9, 0.0, 2023-04-13 17:06:27.952
7.0, 20592.304538763114, 23794.594263386043, 3566.176124355331, -6864.2430739692545, 14803.381538794225, 35530.75766930076, 48479.63732238261, -33333.67059632189, -0.092, 1.002, 0.036000000000000004, 192.0, 0.0, 0.0, 0.0, 0.0, 0.0, 0.0, 0.0, 0.0, 0.0, 1.6814199879521563E9, 0.0, 2023-04-13 17:06:27.952
8.0, 20607.146097081437, 23854.228717592803, 3619.0603517365876, -6862.611396624017, 14805.750823706489, 35549.15315498748, 48484.711168373964, -33296.700810992814, -0.092, 1.002, 0.036000000000000004, 192.0, 0.0, 0.0, 0.0, 0.0, 0.0, 0.0, 0.0, 0.0, 0.0, 1.6814199879521892E9, 0.0, 2023-04-13 17:06:27.952
9.0, 20403.678167304777, 23565.57828969697, 3618.1662819583753, -6837.4209806228855, 14838.965515967075, 35551.81301257766, 48492.914258589066, -33269.185813568336, -0.092, 1.002, 0.036000000000000004, 192.0, 0.0, 0.0, 0.0, 0.0, 0.0, 0.0, 0.0, 0.0, 0.0, 1.681419987952222E9, 0.0, 2023-04-13 17:06:27.952
10.0, 20357.36535279338, 23476.283070598016, 3567.8078017005687, -6830.626050308472, 14823.140480892716, 35519.626500562015, 48484.68881662951, -33275.757226438196, -0.092, 1.002, 0.036000000000000004, 192.0, 0.0, 0.0, 0.0, 0.0, 0.0, 0.0, 0.0, 0.0, 0.0, 1.681419987952376E9, 0.0, 2023-04-13 17:06:27.952
11.0, 20541.610782338477, 23733.484594045236, 3555.760211439158, -6863.147838490944, 14768.266948254937, 35497.92295669591, 48475.09991825819, -33276.11485434948, -0.092, 1.002, 0.036000000000000004, 192.0, 0.0, 0.0, 0.0, 0.0, 0.0, 0.0, 0.0, 0.0, 0.0, 1.681419987952413E9, 0.0, 2023-04-13 17:06:27.952
12.0, 20624.4686990343, 23881.810770250653, 3603.3247236400516, -6855.794114565148, 14775.531265202913, 35504.00263118775, 48488.153337020085, -33251.61734242646, -0.092, 1.004, 0.032, 192.0, 253.0, 32.0, 31.0, 96.0, 1.0, 0.0, 0.0, 0.0, 0.0, 1.6814199879524505E9, 0.0, 2023-04-13 17:06:27.952
13.0, 20431.23786821817, 23610.48294430768, 3619.9767732592554, -6833.621184065483, 14820.681789002632, 35521.19112267389, 48514.50604373289, -33212.47943788522, -0.092, 1.004, 0.032, 192.0, 0.0, 0.0, 0.0, 0.0, 0.0, 0.0, 0.0, 0.0, 0.0, 1.6814199879524891E9, 0.0, 2023-04-13 17:06:27.952
14.0, 20348.424655011255, 23462.64850648028, 3563.471563276239, -6831.833044509059, 14835.36688510977, 35493.85493920505, 48492.71309288897, -33214.2899291861, -0.092, 1.004, 0.032, 192.0, 0.0, 0.0, 0.0, 0.0, 0.0, 0.0, 0.0, 0.0, 0.0, 1.6814199879525268E9, 0.0, 2023-04-13 17:06:27.952
15.0, 20500.48357254071, 23656.840462307988, 3530.346277993474, -6844.193559192844, 14803.381538794225, 35458.449775987836, 48455.96682500444, -33223.163571734854, -0.092, 1.004, 0.032, 192.0, 0.0, 0.0, 0.0, 0.0, 0.0, 0.0, 0.0, 0.0, 0.0, 1.6814199879525552E9, 0.0, 2023-04-13 17:06:27.952
16.0, 20644.60762078853, 23890.080915699116, 3586.3821013429288, -6885.700748646349, 14757.091076027284, 35478.90162216445, 48457.196170949486, -33174.21325137773, -0.092, 1.004, 0.032, 192.0, 0.0, 0.0, 0.0, 0.0, 0.0, 0.0, 0.0, 0.0, 0.0, 1.6814199879525917E9, 0.0, 2023-04-13 17:06:27.952
17.0, 20465.234871534693, 23654.091197739985, 3611.8407382775235, -6852.195483707844, 14814.758576721977, 35499.21935787432, 48473.55764789077, -33122.53601819706, -0.092, 1.004, 0.032, 192.0, 0.0, 0.0, 0.0, 0.0, 0.0, 0.0, 0.0, 0.0, 0.0, 1.6814199879526293E9, 0.0, 2023-04-13 17:06:27.952
18.0, 20350.25749805659, 23458.602840733867, 3561.8175341865463, -6816.29858211262, 14844.955783481097, 35464.93178187988, 48452.904636014064, -33127.07342232149, -0.092, 1.004, 0.032, 192.0, 0.0, 0.0, 0.0, 0.0, 0.0, 0.0, 0.0, 0.0, 0.0, 1.6814199879526641E9, 0.0, 2023-04-13 17:06:27.952
19.0, 20460.20572903225, 23595.104944122428, 3522.836091856491, -6834.44819861033, 14800.632274226222, 35427.58201689506, 48422.014525176826, -33135.94706487025, -0.092, 1.004, 0.032, 192.0, 0.0, 0.0, 0.0, 0.0, 0.0, 0.0, 0.0, 0.0, 0.0, 1.6814199879526997E9, 0.0, 2023-04-13 17:06:27.952
20.0, 20646.932202211883, 23879.799113249675, 3564.209170843264, -6864.466591413808, 14762.634308652201, 35428.43138318436, 48418.12532164161, -33111.22603550268, -0.092, 1.004, 0.032, 192.0, 0.0, 0.0, 0.0, 0.0, 0.0, 0.0, 0.0, 0.0, 0.0, 1.6814199879527597E9, 0.0, 2023-04-13 17:06:27.952
21.0, 20506.809116221564, 23721.235838083725, 3625.318840184074, -6879.442260198863, 14760.7344103735, 35487.48469203529, 48455.76565930434, -33025.35063330539, -0.092, 1.004, 0.032, 192.0, 0.0, 0.0, 0.0, 0.0, 0.0, 0.0, 0.0, 0.0, 0.0, 1.6814199879528008E9, 0.0, 2023-04-13 17:06:27.952
22.0, 20355.688971959233, 23485.40258233578, 3578.9836739282223, -6842.248957425232, 14823.967495437562, 35468.75393018174, 48431.35755435915, -33013.12422908834, -0.092, 1.004, 0.032, 192.0, 253.0, 32.0, 31.0, 96.0, 1.0, 0.0, 0.0, 0.0, 0.0, 1.6814199879528525E9, 0.0, 2023-04-13 17:06:27.952
23.0, 20424.264123948113, 23543.159490008296, 3518.857481343446, -6807.313180841587, 14849.783760283442, 35404.93969976183, 48383.10013808014, -33052.57505805195, -0.092, 1.004, 0.032, 192.0, 0.0, 0.0, 0.0, 0.0, 0.0, 0.0, 0.0, 0.0, 0.0, 1.6814199879528933E9, 0.0, 2023-04-13 17:06:27.952
24.0, 20642.148928898445, 23853.33464781459, 3556.698984706281, -6828.927317729869, 14796.944236391097, 35392.467426355775, 48374.829992631676, -33045.35544459289, -0.092, 1.004, 0.032, 192.0, 0.0, 0.0, 0.0, 0.0, 0.0, 0.0, 0.0, 0.0, 0.0, 1.6814199879529333E9, 0.0, 2023-04-13 17:06:27.952
25.0, 20546.48346262973, 23758.295030390625, 3619.8426627925237, -6835.409323621908, 14795.469021257046, 35435.85216234352, 48414.41493206203, -32982.256469995555, -0.092, 1.004, 0.032, 192.0, 0.0, 0.0, 0.0, 0.0, 0.0, 0.0, 0.0, 0.0, 0.0, 1.681419987952972E9, 0.0, 2023-04-13 17:06:27.952
26.0, 20369.345887821422, 23486.90014921429, 3593.1993834017976, -6822.579422304562, 14830.874184474253, 35429.05723202911, 48417.96885943042, -32963.57041163092, -0.092, 1.004, 0.032, 192.0, 0.0, 0.0, 0.0, 0.0, 0.0, 0.0, 0.0, 0.0, 0.0, 1.681419987953123E9, 0.0, 2023-04-13 17:06:27.953
27.0, 20398.55961782451, 23500.8476377544, 3543.936138622301, -6820.2101373923, 14822.536983792423, 35395.52961534615, 48399.59572548816, -32971.505280912555, -0.092, 1.004, 0.032, 192.0, 0.0, 0.0, 0.0, 0.0, 0.0, 0.0, 0.0, 0.0, 0.0, 1.6814199879531538E9, 0.0, 2023-04-13 17:06:27.953
28.0, 20614.052786118125, 23815.96253108532, 3559.7611736966583, -6852.68722208586, 14759.616823150734, 35373.937830202325, 48390.25269630584, -32958.787138317486, -0.092, 1.004, 0.032, 192.0, 0.0, 0.0, 0.0, 0.0, 0.0, 0.0, 0.0, 0.0, 0.0, 1.6814199879531858E9, 0.0, 2023-04-13 17:06:27.953
29.0, 20569.461055929787, 23805.680728635878, 3617.629840091448, -6859.280986700176, 14744.574099132313, 35381.67153378386, 48417.09714139666, -32895.6658119757, -0.092, 1.004, 0.032, 192.0, 0.0, 0.0, 0.0, 0.0, 0.0, 0.0, 0.0, 0.0, 0.0, 1.681419987953231E9, 0.0, 2023-04-13 17:06:27.953
30.0, 20378.37599258137, 23533.011798025585, 3608.152700442398, -6844.618242337495, 14769.339831988793, 35381.78329250614, 48419.712295497935, -32849.151831764204, -0.092, 1.004, 0.032, 192.0, 0.0, 0.0, 0.0, 0.0, 0.0, 0.0, 0.0, 0.0, 0.0, 1.6814199879532695E9, 0.0, 2023-04-13 17:06:27.953
31.0, 20360.51694876158, 23468.750532716578, 3528.1111035479435, -6807.1567186304, 14821.88878320322, 35319.55603594256, 48373.39948098654, -32882.25476530251, -0.092, 1.004, 0.032, 192.0, 0.0, 0.0, 0.0, 0.0, 0.0, 0.0, 0.0, 0.0, 0.0, 1.6814199879533083E9, 0.0, 2023-04-13 17:06:27.953
32.0, 20576.635965899943, 23764.57587058257, 3539.9128246203454, -6839.969079490791, 14740.01434326343, 35305.586195658, 48367.67743440598, -32871.34711400832, -0.092, 1.006, 0.032, 192.0, 253.0, 32.0, 31.0, 112.0, 1.0, 0.0, 0.0, 0.0, 0.0, 1.6814199879533477E9, 0.0, 2023-04-13 17:06:27.953
33.0, 20597.333681265554, 23850.451272779857, 3606.7221887972582, -6875.642463641461, 14712.09701443875, 35353.731853214726, 48393.96308588542, -32797.67576428363, -0.092, 1.006, 0.032, 192.0, 0.0, 0.0, 0.0, 0.0, 0.0, 0.0, 0.0, 0.0, 0.0, 1.6814199879533849E9, 0.0, 2023-04-13 17:06:27.953
34.0, 20389.171885153282, 23551.98842906814, 3597.4909183372165, -6831.6095270645055, 14774.614843680245, 35355.85526893798, 48399.707484210434, -32770.25017383697, -0.092, 1.006, 0.032, 192.0, 0.0, 0.0, 0.0, 0.0, 0.0, 0.0, 0.0, 0.0, 0.0, 1.6814199879534185E9, 0.0, 2023-04-13 17:06:27.953
35.0, 20333.11371005937, 23436.45226197866, 3528.647545414871, -6803.826308706559, 14804.208553339071, 35304.9826985577, 48367.11864079459, -32794.09948517078, -0.092, 1.006, 0.032, 192.0, 0.0, 0.0, 0.0, 0.0, 0.0, 0.0, 0.0, 0.0, 0.0, 1.681419987953464E9, 0.0, 2023-04-13 17:06:27.953
36.0, 20515.034558181116, 23685.338936488504, 3518.0975220319656, -6832.883576498459, 14752.44191318058, 35276.93125926629, 48345.90683530651, -32796.75934276096, -0.092, 1.006, 0.032, 192.0, 0.0, 0.0, 0.0, 0.0, 0.0, 0.0, 0.0, 0.0, 0.0, 1.6814199879535017E9, 0.0, 2023-04-13 17:06:27.953
37.0, 20603.92744587987, 23849.110168112536, 3577.4190518163505, -6853.134256974967, 14727.318552412815, 35297.76308509864, 48355.89806507803, -32752.592295717277, -0.092, 1.006, 0.032, 192.0, 0.0, 0.0, 0.0, 0.0, 0.0, 0.0, 0.0, 0.0, 0.0, 1.6814199879535382E9, 0.0, 2023-04-13 17:06:27.953
38.0, 20404.929864994272, 23575.927147379774, 3592.461775834772, -6819.9866199477465, 14778.749916404477, 35313.14108528389, 48366.82806811668, -32712.873245820196, -0.092, 1.006, 0.032, 192.0, 0.0, 0.0, 0.0, 0.0, 0.0, 0.0, 0.0, 0.0, 0.0, 1.6814199879535973E9, 0.0, 2023-04-13 17:06:27.953
39.0, 20316.796936606996, 23426.326921740405, 3548.451191002273, -6831.788341020148, 14771.575006434323, 35297.248994976166, 48345.16922773948, -32701.65267010363, -0.092, 1.006, 0.032, 192.0, 0.0, 0.0, 0.0, 0.0, 0.0, 0.0, 0.0, 0.0, 0.0, 1.681419987953636E9, 0.0, 2023-04-13 17:06:27.953
40.0, 20463.91611861183, 23618.686034522776, 3519.9750685662116, -6864.198370480343, 14726.91622101262, 35271.2762679191, 48303.52792781925, -32699.28338519137, -0.092, 1.006, 0.032, 192.0, 0.0, 0.0, 0.0, 0.0, 0.0, 0.0, 0.0, 0.0, 0.0, 1.6814199879536748E9, 0.0, 2023-04-13 17:06:27.953
41.0, 20612.08583260606, 23859.079046139606, 3572.211095358264, -6894.484984217284, 14686.660729248611, 35284.106169236446, 48296.35301784909, -32654.64695151412, -0.092, 1.006, 0.032, 192.0, 0.0, 0.0, 0.0, 0.0, 0.0, 0.0, 0.0, 0.0, 0.0, 1.6814199879537132E9, 0.0, 2023-04-13 17:06:27.953
42.0, 20433.6742083638, 23619.267179878614, 3593.892287479912, -6855.190617464855, 14746.473997411013, 35293.806826330045, 48304.71257027538, -32617.923035374053, -0.09, 1.0, 0.034, 192.0, 253.0, 48.0, 31.0, 64.0, 1.0, 16.0, 0.0, 0.0, 0.0, 1.6814199879538584E9, 0.0, 2023-04-13 17:06:27.953
43.0, 20317.98157906313, 23422.661235649735, 3550.440496258795, -6849.692088328849, 14755.906433571154, 35278.294715678065, 48285.08773864362, -32609.049392825294, -0.09, 1.0, 0.034, 192.0, 0.0, 0.0, 0.0, 0.0, 0.0, 0.0, 0.0, 0.0, 0.0, 1.6814199879539137E9, 0.0, 2023-04-13 17:06:27.953
44.0, 20426.499298393643, 23560.549147194524, 3517.8069493540465, -6873.429640940385, 14716.589715074268, 35254.19953515525, 48251.090735327096, -32605.45076196799, -0.09, 1.0, 0.034, 192.0, 0.0, 0.0, 0.0, 0.0, 0.0, 0.0, 0.0, 0.0, 0.0, 1.6814199879539435E9, 0.0, 2023-04-13 17:06:27.953
45.0, 20617.204382086325, 23850.160700101937, 3563.158638853865, -6910.7347024362925, 14667.28176680586, 35253.41722409931, 48239.44547646588, -32570.82790980672, -0.09, 1.0, 0.034, 192.0, 0.0, 0.0, 0.0, 0.0, 0.0, 0.0, 0.0, 0.0, 0.0, 1.6814199879539735E9, 0.0, 2023-04-13 17:06:27.953
46.0, 20475.24845305067, 23681.025049808628, 3609.091473709521, -6893.4791557167955, 14702.128136411684, 35288.73298033869, 48261.46194475436, -32511.372269555603, -0.09, 1.0, 0.034, 192.0, 0.0, 0.0, 0.0, 0.0, 0.0, 0.0, 0.0, 0.0, 0.0, 1.6814199879540005E9, 0.0, 2023-04-13 17:06:27.954
47.0, 20317.31102672947, 23439.179174802208, 3569.014795901155, -6867.148800748444, 14748.262136967438, 35278.31706742252, 48245.97218584683, -32500.151693839038, -0.09, 1.0, 0.034, 192.0, 0.0, 0.0, 0.0, 0.0, 0.0, 0.0, 0.0, 0.0, 0.0, 1.6814199879540284E9, 0.0, 2023-04-13 17:06:27.954
48.0, 20382.153437394314, 23513.856353027386, 3526.41237096934, -6885.36547247952, 14716.120328440706, 35258.66988404631, 48210.09763599606, -32497.648298460044, -0.09, 1.0, 0.034, 192.0, 0.0, 0.0, 0.0, 0.0, 0.0, 0.0, 0.0, 0.0, 0.0, 1.6814199879540603E9, 0.0, 2023-04-13 17:06:27.954
49.0, 20596.014928342694, 23827.272513779702, 3549.568778225038, -6913.171042581921, 14676.714202966, 35254.60186655544, 48177.8217170026, -32481.420931985493, -0.09, 1.0, 0.034, 192.0, 0.0, 0.0, 0.0, 0.0, 0.0, 0.0, 0.0, 0.0, 0.0, 1.6814199879540923E9, 0.0, 2023-04-13 17:06:27.954
50.0, 20500.371813818434, 23715.714957203265, 3584.9739414422443, -6871.753260106238, 14723.362293644226, 35265.3754073829, 48176.145336168454, -32449.748510092322, -0.09, 1.0, 0.034, 192.0, 0.0, 0.0, 0.0, 0.0, 0.0, 0.0, 0.0, 0.0, 0.0, 1.6814199879541237E9, 0.0, 2023-04-13 17:06:27.954
51.0, 20324.664750655265, 23442.01784634803, 3554.396755027384, -6838.046829467635, 14763.662488897144, 35250.2209246422, 48160.968501683295, -32442.685358844443, -0.09, 1.0, 0.034, 192.0, 0.0, 0.0, 0.0, 0.0, 0.0, 0.0, 0.0, 0.0, 0.0, 1.6814199879541552E9, 0.0, 2023-04-13 17:06:27.954
52.0, 20346.949439877208, 23446.77876791701, 3500.640809612371, -6838.672678312383, 14756.308764971349, 35209.294880544534, 48115.54975695012, -32459.89620207503, -0.09, 1.004, 0.032, 192.0, 253.0, 48.0, 31.0, 96.0, 1.0, 0.0, 0.0, 0.0, 0.0, 1.6814199879541872E9, 0.0, 2023-04-13 17:06:27.954
53.0, 20566.68943961733, 23760.105521691505, 3520.9361935777897, -6875.776574108193, 14697.85895322072, 35201.181197307254, 48087.09598625851, -32441.94775127742, -0.09, 1.004, 0.032, 192.0, 0.0, 0.0, 0.0, 0.0, 0.0, 0.0, 0.0, 0.0, 0.0, 1.6814199879542212E9, 0.0, 2023-04-13 17:06:27.954
54.0, 20529.07145369905, 23754.27171638867, 3584.1692786418535, -6892.428623727396, 14686.817191459799, 35246.421128084796, 48100.23881199823, -32366.912945140954, -0.09, 1.004, 0.032, 192.0, 0.0, 0.0, 0.0, 0.0, 0.0, 0.0, 0.0, 0.0, 0.0, 1.6814199879542537E9, 0.0, 2023-04-13 17:06:27.954
55.0, 20329.93976234672, 23464.01196289205, 3568.478354034228, -6866.724117603793, 14734.806386805343, 35252.858430487926, 48085.77723333565, -32328.847924333564, -0.09, 1.004, 0.032, 192.0, 0.0, 0.0, 0.0, 0.0, 0.0, 0.0, 0.0, 0.0, 0.0, 1.6814199879542859E9, 0.0, 2023-04-13 17:06:27.954
56.0, 20313.26536098306, 23408.73609885408, 3510.542632406072, -6857.157570976922, 14730.783072803388, 35220.82838068347, 48037.60922403446, -32327.64093013298, -0.09, 1.004, 0.032, 192.0, 0.0, 0.0, 0.0, 0.0, 0.0, 0.0, 0.0, 0.0, 0.0, 1.6814199879543176E9, 0.0, 2023-04-13 17:06:27.954
57.0, 20520.82365999504, 23695.464276726758, 3504.9993997811557, -6875.038966541168, 14681.162200112607, 35198.16371180579, 47991.11759556742, -32320.667185862923, -0.09, 1.004, 0.032, 192.0, 0.0, 0.0, 0.0, 0.0, 0.0, 0.0, 0.0, 0.0, 0.0, 1.6814199879544413E9, 0.0, 2023-04-13 17:06:27.954
58.0, 20543.77890155064, 23775.28235617666, 3561.7057754642697, -6887.399481224952, 14674.344918053737, 35226.840999941945, 47986.1778600428, -32266.128929391973, -0.09, 1.004, 0.032, 192.0, 0.0, 0.0, 0.0, 0.0, 0.0, 0.0, 0.0, 0.0, 0.0, 1.6814199879544904E9, 0.0, 2023-04-13 17:06:27.954
59.0, 20338.276963028547, 23486.609576536368, 3562.733955709214, -6865.919454803402, 14717.170860430106, 35242.576628038485, 47980.56757218452, -32226.387527750438, -0.09, 1.004, 0.032, 192.0, 0.0, 0.0, 0.0, 0.0, 0.0, 0.0, 0.0, 0.0, 0.0, 1.6814199879545264E9, 0.0, 2023-04-13 17:06:27.954
60.0, 20283.67165132423, 23371.900423991734, 3498.830318311491, -6838.851492268025, 14735.745160072465, 35205.96447062069, 47931.885472760856, -32240.46912675728, -0.09, 1.004, 0.032, 192.0, 0.0, 0.0, 0.0, 0.0, 0.0, 0.0, 0.0, 0.0, 0.0, 1.681419987954559E9, 0.0, 2023-04-13 17:06:27.954
61.0, 20467.20182504676, 23610.3711855854, 3483.318207659508, -6844.707649315316, 14689.09706939424, 35172.593316148916, 47885.23738208263, -32252.695530974335, -0.09, 1.004, 0.032, 192.0, 0.0, 0.0, 0.0, 0.0, 0.0, 0.0, 0.0, 0.0, 0.0, 1.6814199879545913E9, 0.0, 2023-04-13 17:06:27.954
62.0, 20559.894509302918, 23780.93734752385, 3546.4842374902055, -6876.469478186307, 14649.646240430624, 35196.42027573827, 47873.793288921515, -32206.539178674124, -0.09, 0.996, 0.03, 192.0, 253.0, 48.0, 31.0, 32.0, 0.0, 240.0, 0.0, 0.0, 0.0, 1.6814199879546232E9, 0.0, 2023-04-13 17:06:27.954
63.0, 20362.953288907207, 23516.627969339846, 3572.3228540805408, -6875.888332830469, 14669.606348229212, 35229.34439532094, 47875.13439358883, -32150.771576258136, -0.09, 0.996, 0.03, 192.0, 0.0, 0.0, 0.0, 0.0, 0.0, 0.0, 0.0, 0.0, 0.0, 1.6814199879546576E9, 0.0, 2023-04-13 17:06:27.954
64.0, 20268.114837183337, 23361.328048864372, 3519.416274954829, -6863.416059424408, 14689.253531605427, 35206.09858108742, 47835.191826247195, -32146.435337833806, -0.09, 0.996, 0.03, 192.0, 0.0, 0.0, 0.0, 0.0, 0.0, 0.0, 0.0, 0.0, 0.0, 1.6814199879546957E9, 0.0, 2023-04-13 17:06:27.954
65.0, 20413.4682313762, 23554.22360351367, 3486.35804490543, -6864.667757113905, 14661.090333591741, 35170.96163880368, 47796.2327356616, -32152.179736158818, -0.09, 0.996, 0.03, 192.0, 0.0, 0.0, 0.0, 0.0, 0.0, 0.0, 0.0, 0.0, 0.0, 1.6814199879547284E9, 0.0, 2023-04-13 17:06:27.954
66.0, 20564.58837563853, 23788.827513316573, 3530.0110018266446, -6871.3509287060415, 14642.292516504827, 35173.55444116049, 47793.4834710936, -32125.06707013453, -0.09, 0.996, 0.03, 192.0, 0.0, 0.0, 0.0, 0.0, 0.0, 0.0, 0.0, 0.0, 0.0, 1.6814199879547603E9, 0.0, 2023-04-13 17:06:27.954
67.0, 20391.18354215426, 23567.746408909134, 3565.080888877021, -6863.237245468766, 14664.912481893598, 35209.11606658889, 47818.495073139085, -32067.757197351122, -0.09, 0.996, 0.03, 192.0, 0.0, 0.0, 0.0, 0.0, 0.0, 0.0, 0.0, 0.0, 0.0, 1.6814199879547925E9, 0.0, 2023-04-13 17:06:27.954
68.0, 20268.092485438883, 23362.400932598226, 3512.800158596058, -6844.4617801263075, 14691.309892095316, 35188.1054268009, 47801.17247118622, -32067.846604328945, -0.09, 0.996, 0.03, 192.0, 0.0, 0.0, 0.0, 0.0, 0.0, 0.0, 0.0, 0.0, 0.0, 1.6814199879548247E9, 0.0, 2023-04-13 17:06:27.954
69.0, 20372.45278030071, 23489.805875993476, 3474.73513778867, -6875.418946196908, 14640.772597881867, 35162.602086377396, 47773.523363295004, -32073.1216160204, -0.09, 0.996, 0.03, 192.0, 0.0, 0.0, 0.0, 0.0, 0.0, 0.0, 0.0, 0.0, 0.0, 1.6814199879548564E9, 0.0, 2023-04-13 17:06:27.954
70.0, 20562.911994804384, 23776.46699863279, 3512.5542894070495, -6906.711388434338, 14596.762013049367, 35164.59139163392, 47762.59336025636, -32049.67463608678, -0.09, 0.996, 0.03, 192.0, 0.0, 0.0, 0.0, 0.0, 0.0, 0.0, 0.0, 0.0, 0.0, 1.6814199879548955E9, 0.0, 2023-04-13 17:06:27.954
71.0, 20424.86762104841, 23607.018423917107, 3552.4968567486835, -6879.777536365693, 14637.933926336042, 35167.81004283548, 47779.334816853385, -32001.931309930245, -0.09, 0.996, 0.03, 192.0, 0.0, 0.0, 0.0, 0.0, 0.0, 0.0, 0.0, 0.0, 0.0, 1.6814199879549282E9, 0.0, 2023-04-13 17:06:27.954
72.0, 20270.081790695407, 23365.418418099693, 3514.5659464080272, -6843.634765581462, 14668.064077861796, 35111.41659157474, 47763.08509863438, -32001.081943640944, -0.096, 0.992, 0.03, 192.0, 253.0, 0.0, 31.0, 0.0, 0.0, 240.0, 0.0, 0.0, 0.0, 1.6814199879549603E9, 0.0, 2023-04-13 17:06:27.954
73.0, 20334.857146126884, 23438.620381190824, 3470.8459342534466, -6861.113829745511, 14635.27406874586, 35062.22040202861, 47730.69742091864, -32008.793295478023, -0.096, 0.992, 0.03, 192.0, 0.0, 0.0, 0.0, 0.0, 0.0, 0.0, 0.0, 0.0, 0.0, 1.6814199879550796E9, 0.0, 2023-04-13 17:06:27.955
74.0, 20550.998515009705, 23754.338771622035, 3500.93138229029, -6894.730853406293, 14582.345137875694, 35054.374939724796, 47717.57694692337, -31994.108199370887, -0.096, 0.992, 0.03, 192.0, 0.0, 0.0, 0.0, 0.0, 0.0, 0.0, 0.0, 0.0, 0.0, 1.6814199879551115E9, 0.0, 2023-04-13 17:06:27.955
75.0, 20461.368019743924, 23667.59165139099, 3556.27430156163, -6883.93496083438, 14603.914571275065, 35088.72957095261, 47737.604109955326, -31935.859553320355, -0.096, 0.992, 0.03, 192.0, 0.0, 0.0, 0.0, 0.0, 0.0, 0.0, 0.0, 0.0, 0.0, 1.681419987955144E9, 0.0, 2023-04-13 17:06:27.955
76.0, 20282.665822823743, 23396.956729526133, 3525.5630046800384, -6867.7075943598265, 14650.294441019827, 35075.18441381269, 47720.37091498029, -31921.956768269156, -0.096, 0.992, 0.03, 192.0, 0.0, 0.0, 0.0, 0.0, 0.0, 0.0, 0.0, 0.0, 0.0, 1.6814199879551764E9, 0.0, 2023-04-13 17:06:27.955
77.0, 20302.804744577974, 23396.77791557049, 3467.671986540793, -6872.26735022871, 14641.890185104632, 35034.75010809304, 47672.53818184593, -31939.27937022202, -0.096, 0.992, 0.03, 192.0, 0.0, 0.0, 0.0, 0.0, 0.0, 0.0, 0.0, 0.0, 0.0, 1.6814199879552083E9, 0.0, 2023-04-13 17:06:27.955
78.0, 20525.808099008573, 23706.84131465451, 3477.283236656575, -6902.50926047674, 14593.073975214242, 35018.567445107394, 47632.886187182216, -31937.155954498765, -0.096, 0.992, 0.03, 192.0, 0.0, 0.0, 0.0, 0.0, 0.0, 0.0, 0.0, 0.0, 0.0, 1.681419987955239E9, 0.0, 2023-04-13 17:06:27.955
79.0, 20494.850932937974, 23702.236855296716, 3533.3414117504853, -6904.140937821978, 14594.280969414827, 35046.21655299861, 47644.88907395471, -31887.959764952633, -0.096, 0.992, 0.03, 192.0, 0.0, 0.0, 0.0, 0.0, 0.0, 0.0, 0.0, 0.0, 0.0, 1.6814199879552672E9, 0.0, 2023-04-13 17:06:27.955
80.0, 20297.283863697514, 23413.564075656424, 3520.7573796221473, -6884.426699212397, 14643.544214194324, 35034.57129413739, 47653.360385103275, -31858.857793671825, -0.096, 0.992, 0.03, 192.0, 0.0, 0.0, 0.0, 0.0, 0.0, 0.0, 0.0, 0.0, 0.0, 1.6814199879553108E9, 0.0, 2023-04-13 17:06:27.955
81.0, 20280.7882762895, 23364.703162277125, 3463.9168934723016, -6878.570542165106, 14643.588917683235, 34959.44708102311, 47628.99698364699, -31866.032703641977, -0.096, 0.992, 0.03, 192.0, 0.0, 0.0, 0.0, 0.0, 0.0, 0.0, 0.0, 0.0, 0.0, 1.6814199879553492E9, 0.0, 2023-04-13 17:06:27.955
82.0, 20481.082258353505, 23642.53534585659, 3449.1423903873433, -6890.9534085933465, 14618.554963893292, 34873.99636197047, 47591.624866917715, -31881.12013114931, -0.096, 0.994, 0.028, 192.0, 253.0, 0.0, 31.0, 16.0, 0.0, 224.0, 0.0, 0.0, 0.0, 1.6814199879553783E9, 0.0, 2023-04-13 17:06:27.955
83.0, 20517.20267739328, 23729.953018421296, 3509.4921004166727, -6896.250772029254, 14611.760033578877, 34846.101384890244, 47606.13114906921, -31844.95500862062, -0.096, 0.994, 0.028, 192.0, 0.0, 0.0, 0.0, 0.0, 0.0, 0.0, 0.0, 0.0, 0.0, 1.681419987955408E9, 0.0, 2023-04-13 17:06:27.955
84.0, 20319.479145941634, 23450.086826096398, 3516.018809797622, -6874.815449096614, 14654.384810255147, 34818.09464908775, 47620.1903963316, -31813.170828005175, -0.096, 0.994, 0.028, 192.0, 0.0, 0.0, 0.0, 0.0, 0.0, 0.0, 0.0, 0.0, 0.0, 1.681419987955437E9, 0.0, 2023-04-13 17:06:27.955
85.0, 20263.66684003673, 23347.53702253545, 3464.1404109168543, -6864.734812347271, 14659.682173691055, 34767.400892663114, 47599.671494921626, -31822.469153698585, -0.096, 0.994, 0.028, 192.0, 0.0, 0.0, 0.0, 0.0, 0.0, 0.0, 0.0, 0.0, 0.0, 1.681419987955464E9, 0.0, 2023-04-13 17:06:27.955
86.0, 20436.244658976157, 23587.415944029803, 3448.0471549090335, -6886.5501149356505, 14618.063225515274, 34735.63906379212, 47572.491773663976, -31833.73443290406, -0.096, 0.994, 0.028, 192.0, 0.0, 0.0, 0.0, 0.0, 0.0, 0.0, 0.0, 0.0, 0.0, 1.6814199879555004E9, 0.0, 2023-04-13 17:06:27.955
87.0, 20527.1939071648, 23756.104559434007, 3502.607763124438, -6914.221574571321, 14588.245998411894, 34751.30763665529, 47575.50925916544, -31802.48669415554, -0.096, 0.994, 0.028, 192.0, 0.0, 0.0, 0.0, 0.0, 0.0, 0.0, 0.0, 0.0, 0.0, 1.6814199879555357E9, 0.0, 2023-04-13 17:06:27.955
88.0, 20332.17493679225, 23487.12366665884, 3521.6290976559044, -6899.201202297355, 14631.22840299945, 34771.26774445388, 47589.188526772086, -31763.035865191923, -0.096, 0.994, 0.028, 192.0, 0.0, 0.0, 0.0, 0.0, 0.0, 0.0, 0.0, 0.0, 0.0, 1.6814199879555664E9, 0.0, 2023-04-13 17:06:27.955
89.0, 20238.789348457976, 23326.302865302907, 3463.536913816561, -6876.491829930763, 14667.460580761503, 34731.615749790166, 47559.058375246335, -31778.167996188167, -0.096, 0.994, 0.028, 192.0, 0.0, 0.0, 0.0, 0.0, 0.0, 0.0, 0.0, 0.0, 0.0, 1.6814199879556923E9, 0.0, 2023-04-13 17:06:27.955
90.0, 20386.087344418447, 23509.341300647415, 3431.6856779677487, -6877.832934598081, 14641.532557193346, 34684.408865500554, 47532.39274411115, -31800.13976098773, -0.096, 0.994, 0.028, 192.0, 0.0, 0.0, 0.0, 0.0, 0.0, 0.0, 0.0, 0.0, 0.0, 1.681419987955722E9, 0.0, 2023-04-13 17:06:27.955
91.0, 20547.77986380814, 23767.526300850666, 3500.573754379005, -6932.885281191502, 14576.868960484144, 34713.62259550364, 47549.35771815273, -31745.71326323906, -0.096, 0.994, 0.028, 192.0, 0.0, 0.0, 0.0, 0.0, 0.0, 0.0, 0.0, 0.0, 0.0, 1.6814199879557412E9, 0.0, 2023-04-13 17:06:27.955
92.0, 20362.863881929385, 23539.27028647307, 3531.88854836089, -6918.669571717927, 14625.148728507607, 34736.555485314784, 47565.56273288283, -31694.25954750294, -0.096, 1.004, 0.034, 192.0, 253.0, 0.0, 31.0, 96.0, 1.0, 16.0, 0.0, 0.0, 0.0, 1.6814199879557605E9, 0.0, 2023-04-13 17:06:27.955
93.0, 20235.39188330077, 23334.215382840084, 3483.45231812624, -6900.631713942495, 14650.540310208835, 34697.909319151564, 47543.85918901672, -31695.243024258976, -0.096, 1.004, 0.034, 192.0, 0.0, 0.0, 0.0, 0.0, 0.0, 0.0, 0.0, 0.0, 0.0, 1.6814199879557807E9, 0.0, 2023-04-13 17:06:27.955
94.0, 20338.142852561814, 23458.9381169007, 3440.4699135386845, -6914.3109815491425, 14619.918420305065, 34642.4769929024, 47507.91758393259, -31711.00100409997, -0.096, 1.004, 0.034, 192.0, 0.0, 0.0, 0.0, 0.0, 0.0, 0.0, 0.0, 0.0, 0.0, 1.6814199879558E9, 0.0, 2023-04-13 17:06:27.955
95.0, 20525.182250163823, 23753.623515799467, 3484.994588493656, -6948.978537199323, 14567.21300687945, 34633.49159163137, 47501.860261185204, -31683.731875864494, -0.096, 1.004, 0.034, 192.0, 0.0, 0.0, 0.0, 0.0, 0.0, 0.0, 0.0, 0.0, 0.0, 1.6814199879558191E9, 0.0, 2023-04-13 17:06:27.955
96.0, 20386.199103140727, 23595.261406333615, 3532.7155629057365, -6929.912499178947, 14608.049643999297, 34642.745213835864, 47524.793150996346, -31630.53472406086, -0.096, 1.004, 0.034, 192.0, 0.0, 0.0, 0.0, 0.0, 0.0, 0.0, 0.0, 0.0, 0.0, 1.68141998795585E9, 0.0, 2023-04-13 17:06:27.955
97.0, 20232.44145303267, 23349.369865580782, 3487.341521661463, -6896.4072342404415, 14672.266205819395, 34588.96691667639, 47506.37531356518, -31636.92732297508, -0.096, 1.004, 0.034, 192.0, 0.0, 0.0, 0.0, 0.0, 0.0, 0.0, 0.0, 0.0, 0.0, 1.68141998795587E9, 0.0, 2023-04-13 17:06:27.955
98.0, 20290.086601982905, 23396.979081270587, 3429.606965733405, -6889.053510314645, 14671.819170930288, 34512.61335761707, 47477.116880073176, -31669.82909081329, -0.096, 1.004, 0.034, 192.0, 0.0, 0.0, 0.0, 0.0, 0.0, 0.0, 0.0, 0.0, 0.0, 1.6814199879558892E9, 0.0, 2023-04-13 17:06:27.955
99.0, 20505.512715043154, 23701.745116918697, 3452.2492828666313, -6902.553963965651, 14631.697789633012, 34472.00023794177, 47472.19949629301, -31670.477291402494, -0.096, 1.004, 0.034, 192.0, 0.0, 0.0, 0.0, 0.0, 0.0, 0.0, 0.0, 0.0, 0.0, 1.6814199879559083E9, 0.0, 2023-04-13 17:06:27.955
100.0, 20421.4701558912, 23623.603418302944, 3518.4551499432505, -6912.500490248262, 14626.243963985917, 34465.62999077201, 47507.55995602131, -31609.63584299515, -0.096, 1.004, 0.034, 192.0, 0.0, 0.0, 0.0, 0.0, 0.0, 0.0, 0.0, 0.0, 0.0, 1.6814199879559271E9, 0.0, 2023-04-13 17:06:27.955
101.0, 20238.342313568868, 23343.066673644385, 3488.280294928586, -6872.088536273067, 14683.889112936153, 34379.0169810077, 47496.24997332692, -31608.02651739437, -0.096, 1.004, 0.034, 192.0, 0.0, 0.0, 0.0, 0.0, 0.0, 0.0, 0.0, 0.0, 0.0, 1.6814199879559467E9, 0.0, 2023-04-13 17:06:27.955
102.0, 20249.317020096427, 23342.82080445538, 3445.029669407567, -6889.0758620591005, 14653.893071877132, 34294.75090441119, 47472.28890327083, -31609.54643601733, -0.092, 1.008, 0.032, 192.0, 253.0, 32.0, 31.0, 128.0, 1.0, 0.0, 0.0, 0.0, 0.0, 1.6814199879559658E9, 0.0, 2023-04-13 17:06:27.955
103.0, 20458.57405168701, 23646.089273224985, 3455.646748023838, -6912.74635943727, 14613.212896968473, 34246.76170906564, 47449.24425473741, -31604.472590025973, -0.092, 1.008, 0.032, 192.0, 0.0, 0.0, 0.0, 0.0, 0.0, 0.0, 0.0, 0.0, 0.0, 1.681419987955986E9, 0.0, 2023-04-13 17:06:27.955
104.0, 20426.499298393643, 23654.895860540375, 3524.311306990541, -6936.170987626432, 14593.096326958695, 34283.79854962809, 47477.96624636248, -31536.81385955976, -0.092, 1.008, 0.032, 192.0, 0.0, 0.0, 0.0, 0.0, 0.0, 0.0, 0.0, 0.0, 0.0, 1.6814199879560664E9, 0.0, 2023-04-13 17:06:27.956
105.0, 20223.120775594805, 23373.688563548156, 3516.868176086924, -6916.523804250218, 14635.56464142378, 34296.38258175643, 47478.30152252931, -31497.98887944089, -0.092, 1.008, 0.032, 192.0, 0.0, 0.0, 0.0, 0.0, 0.0, 0.0, 0.0, 0.0, 0.0, 1.6814199884305284E9, 0.0, 2023-04-13 17:06:28.430
106.0, 20196.72336539309, 23302.051222568898, 3451.9810619331674, -6886.125431791, 14664.04076385984, 34245.308845676045, 47433.17335047405, -31521.99465298589, -0.092, 1.008, 0.032, 192.0, 0.0, 0.0, 0.0, 0.0, 0.0, 0.0, 0.0, 0.0, 0.0, 1.681419988430836E9, 0.0, 2023-04-13 17:06:28.430
107.0, 20396.480905590168, 23567.634650186857, 3443.6885647402487, -6904.386807010986, 14613.190545224017, 34201.45472305474, 47393.99074244389, -31540.054862505778, -0.092, 1.008, 0.032, 192.0, 0.0, 0.0, 0.0, 0.0, 0.0, 0.0, 0.0, 0.0, 0.0, 1.681419988430878E9, 0.0, 2023-04-13 17:06:28.430
108.0, 20435.7752723426, 23665.82586357902, 3511.1908329952757, -6932.907632935958, 14573.762068004855, 34228.92501699031, 47402.93144022601, -31487.058876402247, -0.092, 1.008, 0.032, 192.0, 0.0, 0.0, 0.0, 0.0, 0.0, 0.0, 0.0, 0.0, 0.0, 1.681419988430899E9, 0.0, 2023-04-13 17:06:28.430
109.0, 20230.608609987332, 23381.846950274343, 3516.510548175639, -6914.825071671614, 14609.100175988697, 34238.3798048949, 47401.74679776988, -31450.46907072891, -0.092, 1.008, 0.032, 192.0, 0.0, 0.0, 0.0, 0.0, 0.0, 0.0, 0.0, 0.0, 0.0, 1.6814199884309185E9, 0.0, 2023-04-13 17:06:28.430
110.0, 20169.968327280087, 23263.762684316956, 3459.088916669955, -6899.759995908737, 14626.400426197104, 34198.973679420196, 47372.37660555561, -31462.494309245863, -0.092, 1.008, 0.032, 192.0, 0.0, 0.0, 0.0, 0.0, 0.0, 0.0, 0.0, 0.0, 0.0, 1.681419988430938E9, 0.0, 2023-04-13 17:06:28.430
111.0, 20341.920297374763, 23499.193608664707, 3446.1025531414216, -6924.615135743039, 14582.92628323153, 34172.553917474026, 47346.60504419864, -31466.76349243683, -0.092, 1.008, 0.032, 192.0, 0.0, 0.0, 0.0, 0.0, 0.0, 0.0, 0.0, 0.0, 0.0, 1.6814199884309576E9, 0.0, 2023-04-13 17:06:28.430
112.0, 20441.206746245236, 23666.71993335723, 3498.6515043558484, -6926.89501367748, 14578.902969229577, 34180.2652693111, 47339.22896852839, -31441.03663456877, -0.088, 1.002, 0.028, 192.0, 253.0, 64.0, 31.0, 80.0, 0.0, 224.0, 0.0, 0.0, 0.0, 1.6814199884309769E9, 0.0, 2023-04-13 17:06:28.430
113.0, 20251.373380586312, 23415.15104951275, 3531.150940793865, -6929.309002078653, 14598.818373539254, 34211.96004294873, 47356.68568094799, -31383.838520507637, -0.088, 1.002, 0.028, 192.0, 0.0, 0.0, 0.0, 0.0, 0.0, 0.0, 0.0, 0.0, 0.0, 1.6814199884310033E9, 0.0, 2023-04-13 17:06:28.431
114.0, 20155.79732129542, 23249.904602754665, 3477.0150157231114, -6907.247830301265, 14637.173967024562, 34175.28083029757, 47328.16485502301, -31391.907500256006, -0.088, 1.002, 0.028, 192.0, 0.0, 0.0, 0.0, 0.0, 0.0, 0.0, 0.0, 0.0, 0.0, 1.6814199884310231E9, 0.0, 2023-04-13 17:06:28.431
115.0, 20295.629834607822, 23428.11506129683, 3449.902349698824, -6935.232214359309, 14599.243056683907, 34140.23329499165, 47300.62750585408, -31402.25635793881, -0.088, 1.002, 0.028, 192.0, 0.0, 0.0, 0.0, 0.0, 0.0, 0.0, 0.0, 0.0, 0.0, 1.681419988431043E9, 0.0, 2023-04-13 17:06:28.431
116.0, 20451.600307416953, 23676.10766602846, 3506.3405044484743, -6970.972653743345, 14562.183864377006, 34159.70166441222, 47304.33789543366, -31366.560622043686, -0.088, 1.002, 0.028, 192.0, 0.0, 0.0, 0.0, 0.0, 0.0, 0.0, 0.0, 0.0, 0.0, 1.6814199884310625E9, 0.0, 2023-04-13 17:06:28.431
117.0, 20282.06232572345, 23465.375419303826, 3550.216978814242, -6978.371081158052, 14580.579350063725, 34210.10484815894, 47322.8674915871, -31299.05835378866, -0.088, 1.002, 0.028, 192.0, 0.0, 0.0, 0.0, 0.0, 0.0, 0.0, 0.0, 0.0, 0.0, 1.6814199884310813E9, 0.0, 2023-04-13 17:06:28.431
118.0, 20155.99848699552, 23247.825890520322, 3492.5271263750947, -6945.715182508849, 14635.430530957048, 34177.292487298546, 47279.661569555, -31309.5413219382, -0.088, 1.002, 0.028, 192.0, 0.0, 0.0, 0.0, 0.0, 0.0, 0.0, 0.0, 0.0, 0.0, 1.6814199884311004E9, 0.0, 2023-04-13 17:06:28.431
119.0, 20255.44139807718, 23362.89267097624, 3454.5962160344384, -6956.533426825217, 14606.37326316515, 34120.51905638207, 47231.806484676184, -31326.260426790766, -0.088, 1.002, 0.028, 192.0, 0.0, 0.0, 0.0, 0.0, 0.0, 0.0, 0.0, 0.0, 0.0, 1.68141998843112E9, 0.0, 2023-04-13 17:06:28.431
120.0, 20447.107606781436, 23652.97361051722, 3496.1034054879437, -6992.340921442619, 14561.848588210178, 34087.21495714366, 47209.1418157985, -31306.68029864792, -0.088, 1.002, 0.028, 192.0, 0.0, 0.0, 0.0, 0.0, 0.0, 0.0, 0.0, 0.0, 0.0, 1.6814199884312637E9, 0.0, 2023-04-13 17:06:28.431
121.0, 20318.36155871887, 23493.717431273155, 3540.024583342622, -6960.132057682522, 14604.473364886448, 34073.42393081474, 47213.90273736748, -31266.357751650543, -0.088, 1.002, 0.028, 192.0, 0.0, 0.0, 0.0, 0.0, 0.0, 0.0, 0.0, 0.0, 0.0, 1.6814199884312832E9, 0.0, 2023-04-13 17:06:28.431
122.0, 20164.872129544274, 23249.88225101021, 3510.699094617259, -6943.636470274505, 14631.407216955093, 34019.377412721806, 47192.42271094593, -31258.847565513563, -0.092, 1.002, 0.03, 192.0, 253.0, 32.0, 31.0, 80.0, 0.0, 240.0, 0.0, 0.0, 0.0, 1.6814199884313047E9, 0.0, 2023-04-13 17:06:28.431
123.0, 20220.863249404818, 23311.90834187369, 3469.8401057529577, -6975.219485189854, 14590.369414135148, 33957.28426662496, 47150.62494881451, -31257.57351607961, -0.092, 1.002, 0.03, 192.0, 0.0, 0.0, 0.0, 0.0, 0.0, 0.0, 0.0, 0.0, 0.0, 1.6814199884313252E9, 0.0, 2023-04-13 17:06:28.431
124.0, 20434.054188019538, 23623.446956091757, 3491.49894613015, -6996.408938933485, 14552.93024217251, 33908.26689103447, 47116.82911119809, -31247.381120607988, -0.092, 1.002, 0.03, 192.0, 0.0, 0.0, 0.0, 0.0, 0.0, 0.0, 0.0, 0.0, 0.0, 1.6814199884313443E9, 0.0, 2023-04-13 17:06:28.431
125.0, 20352.671486457766, 23543.114786519385, 3546.4171822568396, -6982.774374815747, 14563.033230666308, 33897.2027775291, 47129.05551541514, -31200.107181085015, -0.092, 1.002, 0.03, 192.0, 0.0, 0.0, 0.0, 0.0, 0.0, 0.0, 0.0, 0.0, 0.0, 1.681419988431363E9, 0.0, 2023-04-13 17:06:28.431
126.0, 20175.176283738172, 23289.37778346274, 3545.210188056253, -6985.076604494644, 14553.533739272803, 33883.92584132264, 47133.70467826184, -31149.54753512711, -0.092, 1.002, 0.03, 192.0, 0.0, 0.0, 0.0, 0.0, 0.0, 0.0, 0.0, 0.0, 0.0, 1.6814199884313824E9, 0.0, 2023-04-13 17:06:28.431
127.0, 20188.073240288883, 23286.583815405826, 3486.8497832834464, -6977.991101502312, 14560.395724820582, 33812.646128254666, 47089.3141137736, -31155.515450896677, -0.092, 1.002, 0.03, 192.0, 0.0, 0.0, 0.0, 0.0, 0.0, 0.0, 0.0, 0.0, 0.0, 1.6814199884314013E9, 0.0, 2023-04-13 17:06:28.431
128.0, 20403.409946371314, 23580.933938137765, 3479.026672724089, -6968.424554875441, 14550.02451539332, 33726.81542954629, 47044.56592137408, -31176.68255289585, -0.092, 1.002, 0.03, 192.0, 0.0, 0.0, 0.0, 0.0, 0.0, 0.0, 0.0, 0.0, 0.0, 1.681419988431425E9, 0.0, 2023-04-13 17:06:28.431
129.0, 20388.03194618606, 23585.13606609536, 3532.313231505541, -6950.677269777927, 14567.481227812914, 33691.700839007004, 47055.47357266826, -31149.79340431612, -0.092, 1.002, 0.03, 192.0, 0.0, 0.0, 0.0, 0.0, 0.0, 0.0, 0.0, 0.0, 0.0, 1.6814199884314444E9, 0.0, 2023-04-13 17:06:28.431
130.0, 20194.331728736368, 23302.207684780085, 3533.0955425614766, -6941.289537106698, 14585.496733843893, 33659.46962350245, 47069.39870946392, -31119.931473723827, -0.092, 1.002, 0.03, 192.0, 0.0, 0.0, 0.0, 0.0, 0.0, 0.0, 0.0, 0.0, 0.0, 1.6814199884314635E9, 0.0, 2023-04-13 17:06:28.431
131.0, 20169.588347624343, 23235.823003747824, 3479.7866320355693, -6932.1029701355665, 14583.149800676085, 33586.915861000525, 47042.21898820627, -31135.108308208983, -0.092, 1.002, 0.03, 192.0, 0.0, 0.0, 0.0, 0.0, 0.0, 0.0, 0.0, 0.0, 0.0, 1.6814199884314823E9, 0.0, 2023-04-13 17:06:28.431
132.0, 20371.80457971151, 23524.02639675455, 3489.7331583181813, -6988.38466267403, 14505.365729971616, 33552.15889837252, 47023.73409554173, -31118.947996967796, -0.094, 1.002, 0.032, 192.0, 253.0, 16.0, 31.0, 80.0, 1.0, 0.0, 0.0, 0.0, 0.0, 1.6814199884315012E9, 0.0, 2023-04-13 17:06:28.431
133.0, 20414.876391276885, 23622.374072357903, 3543.980842111211, -6989.815174319169, 14522.353055757649, 33544.98398840237, 47024.60581357549, -31078.558394737054, -0.094, 1.002, 0.032, 192.0, 0.0, 0.0, 0.0, 0.0, 0.0, 0.0, 0.0, 0.0, 0.0, 1.6814199884315217E9, 0.0, 2023-04-13 17:06:28.431
134.0, 20213.889505134764, 23332.449595028116, 3545.634871200904, -6950.431400588918, 14584.870884999144, 33519.4135927455, 47024.4493513643, -31055.267877014623, -0.094, 1.002, 0.032, 192.0, 0.0, 0.0, 0.0, 0.0, 0.0, 0.0, 0.0, 0.0, 0.0, 1.6814199884315405E9, 0.0, 2023-04-13 17:06:28.431
135.0, 20152.93629800514, 23219.997968673466, 3499.2326497116865, -6956.511075080762, 14575.93018721702, 33468.33985666512, 47001.20353713078, -31054.798490381065, -0.094, 1.002, 0.032, 192.0, 0.0, 0.0, 0.0, 0.0, 0.0, 0.0, 0.0, 0.0, 0.0, 1.6814199884315808E9, 0.0, 2023-04-13 17:06:28.431
136.0, 20325.6482274113, 23449.30451504046, 3476.3444633894524, -6968.066926964156, 14542.871957167621, 33405.82202742362, 46963.496144234676, -31068.00837135415, -0.094, 1.002, 0.032, 192.0, 0.0, 0.0, 0.0, 0.0, 0.0, 0.0, 0.0, 0.0, 0.0, 1.6814199884316E9, 0.0, 2023-04-13 17:06:28.431
137.0, 20439.508013666633, 23630.95714222874, 3534.9954408401777, -6978.348729413597, 14517.882706866589, 33385.437236480386, 46967.09477509198, -31040.783946607586, -0.094, 1.002, 0.032, 192.0, 0.0, 0.0, 0.0, 0.0, 0.0, 0.0, 0.0, 0.0, 0.0, 1.681419988431619E9, 0.0, 2023-04-13 17:06:28.431
138.0, 20257.184834144693, 23392.374621912793, 3582.0011594296884, -6992.653845864993, 14522.598924946658, 33407.520760002226, 46999.281287107624, -30965.726788726664, -0.094, 1.002, 0.032, 192.0, 0.0, 0.0, 0.0, 0.0, 0.0, 0.0, 0.0, 0.0, 0.0, 1.681419988431638E9, 0.0, 2023-04-13 17:06:28.431
139.0, 20155.864376528785, 23222.233143118996, 3523.50664419015, -6971.173819443443, 14558.719343986433, 33348.445099406854, 46965.328987280016, -30970.93474518475, -0.094, 1.002, 0.032, 192.0, 0.0, 0.0, 0.0, 0.0, 0.0, 0.0, 0.0, 0.0, 0.0, 1.681419988431671E9, 0.0, 2023-04-13 17:06:28.431
140.0, 20288.7902008045, 23382.986889241565, 3476.277408156086, -6960.646147804993, 14546.582346747202, 33263.84374664351, 46919.64202161336, -31007.99393749165, -0.094, 1.002, 0.032, 192.0, 0.0, 0.0, 0.0, 0.0, 0.0, 0.0, 0.0, 0.0, 0.0, 1.68141998843169E9, 0.0, 2023-04-13 17:06:28.431
141.0, 20450.974458572204, 23642.177717945306, 3534.1684262953313, -7008.300066983708, 14482.790468071757, 33255.193621539314, 46927.33102170599, -30973.482844052654, -0.094, 1.002, 0.032, 192.0, 0.0, 0.0, 0.0, 0.0, 0.0, 0.0, 0.0, 0.0, 0.0, 1.681419988431709E9, 0.0, 2023-04-13 17:06:28.431
142.0, 20283.537540857502, 23430.10436655335, 3570.042976146099, -6997.682988367437, 14512.786509130778, 33262.77086290966, 46947.51464694913, -30919.481029448634, -0.094, 1.006, 0.03, 192.0, 253.0, 16.0, 31.0, 112.0, 0.0, 240.0, 0.0, 0.0, 0.0, 1.681419988431728E9, 0.0, 2023-04-13 17:06:28.431
143.0, 20154.590327094833, 23224.31185535334, 3527.2617372586415, -6983.1096509825775, 14531.941954128975, 33223.85647581297, 46932.36016420843, -30909.35568921038, -0.094, 1.006, 0.03, 192.0, 0.0, 0.0, 0.0, 0.0, 0.0, 0.0, 0.0, 0.0, 0.0, 1.6814199884317482E9, 0.0, 2023-04-13 17:06:28.431
144.0, 20241.76213047053, 23327.263990314485, 3474.936303488768, -6986.618874862061, 14527.896288382566, 33149.8722016659, 46893.42342536729, -30932.51209646608, -0.094, 1.006, 0.03, 192.0, 0.0, 0.0, 0.0, 0.0, 0.0, 0.0, 0.0, 0.0, 0.0, 1.6814199884317672E9, 0.0, 2023-04-13 17:06:28.431
145.0, 20441.407911945334, 23623.692825280767, 3514.543594663572, -7014.111520542088, 14491.48529666487, 33102.151227253824, 46888.617800309396, -30916.17297126925, -0.094, 1.006, 0.03, 192.0, 0.0, 0.0, 0.0, 0.0, 0.0, 0.0, 0.0, 0.0, 0.0, 1.681419988431786E9, 0.0, 2023-04-13 17:06:28.431
146.0, 20313.131250516326, 23462.335582057905, 3555.246121316686, -6986.060081250678, 14537.932221643, 33076.80434904151, 46908.063817985516, -30881.617174341343, -0.094, 1.006, 0.03, 192.0, 0.0, 0.0, 0.0, 0.0, 0.0, 0.0, 0.0, 0.0, 0.0, 1.681419988431805E9, 0.0, 2023-04-13 17:06:28.431
147.0, 20158.188957952138, 23213.31479708133, 3525.339487235485, -6971.754964799281, 14562.49678879938, 33043.81317422547, 46904.86751852841, -30873.77171203753, -0.094, 1.006, 0.03, 192.0, 0.0, 0.0, 0.0, 0.0, 0.0, 0.0, 0.0, 0.0, 0.0, 1.681419988431824E9, 0.0, 2023-04-13 17:06:28.431
148.0, 20208.23451378757, 23256.520719113436, 3472.0976319429437, -6973.386642144518, 14548.906928170554, 32997.70152541417, 46876.68196877027, -30896.72695359313, -0.094, 1.006, 0.03, 192.0, 0.0, 0.0, 0.0, 0.0, 0.0, 0.0, 0.0, 0.0, 0.0, 1.6814199884318502E9, 0.0, 2023-04-13 17:06:28.431
149.0, 20421.492507635656, 23581.828007915978, 3505.245268970164, -7028.886023627046, 14467.233653930862, 32999.176740548224, 46873.75389024662, -30869.703694546664, -0.094, 1.006, 0.03, 192.0, 0.0, 0.0, 0.0, 0.0, 0.0, 0.0, 0.0, 0.0, 0.0, 1.6814199884318924E9, 0.0, 2023-04-13 17:06:28.431
150.0, 20336.68998917222, 23509.386004136326, 3552.8768364044236, -7016.480805454351, 14490.25595071983, 32999.44496148169, 46889.69068404326, -30823.43558352418, -0.094, 1.006, 0.03, 192.0, 0.0, 0.0, 0.0, 0.0, 0.0, 0.0, 0.0, 0.0, 0.0, 1.6814199884319172E9, 0.0, 2023-04-13 17:06:28.431
151.0, 20155.685562573144, 23249.234050421008, 3545.5231124786274, -7023.052218324211, 14496.626197889591, 32984.26812699653, 46895.34567539045, -30780.22966149207, -0.094, 1.006, 0.03, 192.0, 0.0, 0.0, 0.0, 0.0, 0.0, 0.0, 0.0, 0.0, 0.0, 1.6814199884319613E9, 0.0, 2023-04-13 17:06:28.431
152.0, 20160.535891119944, 23219.193305873076, 3471.740004031659, -6978.080508480133, 14540.055637366253, 32898.37037305479, 46845.970671888674, -30812.95261537464, -0.08600000000000001, 1.006, 0.034, 192.0, 253.0, 80.0, 31.0, 112.0, 1.0, 16.0, 0.0, 0.0, 0.0, 1.6814199884319804E9, 0.0, 2023-04-13 17:06:28.431
153.0, 20379.739448993143, 23522.394719409316, 3481.865344269913, -7000.655770379994, 14483.192799471952, 32864.820404627375, 46824.512997211576, -30819.456973011136, -0.08600000000000001, 1.006, 0.034, 192.0, 0.0, 0.0, 0.0, 0.0, 0.0, 0.0, 0.0, 0.0, 0.0, 1.6814199884320009E9, 0.0, 2023-04-13 17:06:28.432
154.0, 20362.260384829093, 23545.059388286994, 3546.7748101681245, -7022.828700879658, 14470.80993304371, 32908.20514061512, 46847.714107956184, -30762.527079883468, -0.08600000000000001, 1.006, 0.034, 192.0, 0.0, 0.0, 0.0, 0.0, 0.0, 0.0, 0.0, 0.0, 0.0, 1.6814199884320197E9, 0.0, 2023-04-13 17:06:28.432
