%OpenBCI Raw EEG Data
%Number of channels = 8
%Sample Rate = 250 Hz
%Board = OpenBCI_GUI$BoardCytonSerial
Sample Index, EXG Channel 0, EXG Channel 1, EXG Channel 2, EXG Channel 3, EXG Channel 4, EXG Channel 5, EXG Channel 6, EXG Channel 7, Accel Channel 0, Accel Channel 1, Accel Channel 2, Other, Other, Other, Other, Other, Other, Other, Analog Channel 0, Analog Channel 1, Analog Channel 2, Timestamp, Other, Timestamp (Formatted)
0.0, 0.0, 0.0, 0.0, 0.0, 0.0, 0.0, 0.0, 0.0, 0.0, 0.0, 0.0, 192.0, 0.0, 0.0, 0.0, 0.0, 0.0, 0.0, 0.0, 0.0, 0.0, 1.6814201070801544E9, 0.0, 2023-04-13 17:08:27.080
1.0, 7598.341417114904, 12064.264662774165, -5985.618351175589, -6864.824219325093, 14984.184799693205, 14285.603378487038, 16301.238989977717, -135111.2437380843, -0.152, 0.988, 0.038, 192.0, 251.0, 64.0, 30.0, 224.0, 1.0, 48.0, 0.0, 0.0, 0.0, 1.6814201075639403E9, 0.0, 2023-04-13 17:08:27.563
2.0, 7704.62396199989, 12144.35096315753, -5978.845772605631, -6861.672623356894, 14981.68140431421, 14263.162227053908, 16294.108783496475, -135111.06492412864, -0.152, 0.988, 0.038, 192.0, 0.0, 0.0, 0.0, 0.0, 0.0, 0.0, 0.0, 0.0, 0.0, 1.6814201075640676E9, 0.0, 2023-04-13 17:08:27.564
3.0, 7504.8217183138995, 11967.772181960605, -5950.235539702838, -6840.147893446433, 15015.879573330829, 14281.781230185179, 16324.350693744505, -135070.69767364237, -0.152, 0.988, 0.038, 192.0, 0.0, 0.0, 0.0, 0.0, 0.0, 0.0, 0.0, 0.0, 0.0, 1.6814201075641556E9, 0.0, 2023-04-13 17:08:27.564
4.0, 7449.367040320282, 11915.402044701821, -5961.009080530296, -6846.719306316293, 15018.204154754181, 14282.854113919035, 16332.33026651505, -135050.11171699903, -0.152, 0.988, 0.038, 192.0, 0.0, 0.0, 0.0, 0.0, 0.0, 0.0, 0.0, 0.0, 0.0, 1.6814201075641956E9, 0.0, 2023-04-13 17:08:27.564
5.0, 7612.020684721552, 12046.249156743188, -5998.627066448577, -6875.195428752355, 14978.932139746206, 14259.407133985416, 16286.218617703751, -135055.18556299037, -0.152, 0.988, 0.038, 192.0, 0.0, 0.0, 0.0, 0.0, 0.0, 0.0, 0.0, 0.0, 0.0, 1.6814201075642176E9, 0.0, 2023-04-13 17:08:27.564
6.0, 7772.796782588575, 12167.306204713132, -6024.666848739011, -6895.870792373514, 14946.902089941752, 14262.290509020151, 16252.892166720889, -135035.85130403654, -0.152, 0.988, 0.038, 192.0, 0.0, 0.0, 0.0, 0.0, 0.0, 0.0, 0.0, 0.0, 0.0, 1.6814201075642393E9, 0.0, 2023-04-13 17:08:27.564
7.0, 7591.613542033857, 12005.300760901066, -5987.630008176567, -6871.239169983765, 14982.262549670048, 14286.497448265249, 16287.023280504141, -134989.47143429177, -0.152, 0.988, 0.038, 192.0, 0.0, 0.0, 0.0, 0.0, 0.0, 0.0, 0.0, 0.0, 0.0, 1.681420107564276E9, 0.0, 2023-04-13 17:08:27.564
8.0, 7492.86353503031, 11914.798547601527, -5965.658243377, -6862.790210579659, 15001.261532457058, 14273.555788225627, 16293.37117592945, -134980.97777139876, -0.156, 0.99, 0.068, 192.0, 251.0, 32.0, 30.0, 240.0, 2.0, 32.0, 0.0, 0.0, 0.0, 1.6814201075642977E9, 0.0, 2023-04-13 17:08:27.564
9.0, 7627.17516746225, 12029.105368745968, -5981.259761006804, -6868.1769809933885, 14988.141058461793, 14241.793959354634, 16275.98151874322, -134998.76975998518, -0.156, 0.99, 0.068, 192.0, 0.0, 0.0, 0.0, 0.0, 0.0, 0.0, 0.0, 0.0, 0.0, 1.6814201075643208E9, 0.0, 2023-04-13 17:08:27.564
10.0, 7837.750951975698, 12193.681263170394, -6009.355903787125, -6886.393652724463, 14959.419066836725, 14233.613220883994, 16256.60255630047, -134992.60067851553, -0.156, 0.99, 0.068, 192.0, 0.0, 0.0, 0.0, 0.0, 0.0, 0.0, 0.0, 0.0, 0.0, 1.6814201075643427E9, 0.0, 2023-04-13 17:08:27.564
11.0, 7700.198316597738, 12061.738915650716, -5983.986673830352, -6868.758126349227, 14981.212017680647, 14263.229282287275, 16275.959166998766, -134945.01381457018, -0.156, 0.99, 0.068, 192.0, 0.0, 0.0, 0.0, 0.0, 0.0, 0.0, 0.0, 0.0, 0.0, 1.6814201075643644E9, 0.0, 2023-04-13 17:08:27.564
12.0, 7566.132553354807, 11939.854853135927, -5967.245217233327, -6862.231416968277, 15002.624988868833, 14262.514026464705, 16279.244873433696, -134924.98665153823, -0.156, 0.99, 0.068, 192.0, 0.0, 0.0, 0.0, 0.0, 0.0, 0.0, 0.0, 0.0, 0.0, 1.681420107564386E9, 0.0, 2023-04-13 17:08:27.564
13.0, 7651.471513685169, 12011.872173770926, -6005.511403740812, -6886.125431791, 14973.67947979921, 14245.169072767387, 16250.768750997633, -134921.27626195864, -0.156, 0.99, 0.068, 192.0, 0.0, 0.0, 0.0, 0.0, 0.0, 0.0, 0.0, 0.0, 0.0, 1.6814201075644073E9, 0.0, 2023-04-13 17:08:27.564
14.0, 7876.173600694371, 12191.803716636148, -6038.48022681239, -6914.0204088712235, 14930.227688578092, 14238.910584319901, 16206.86992488741, -134910.32390717554, -0.156, 0.99, 0.068, 192.0, 0.0, 0.0, 0.0, 0.0, 0.0, 0.0, 0.0, 0.0, 0.0, 1.6814201075644293E9, 0.0, 2023-04-13 17:08:27.564
15.0, 7781.2904454815925, 12106.867087705981, -6010.920525898997, -6894.015597583723, 14954.725200501109, 14264.01159334321, 16222.292628561572, -134871.5883340345, -0.156, 0.99, 0.068, 192.0, 0.0, 0.0, 0.0, 0.0, 0.0, 0.0, 0.0, 0.0, 0.0, 1.6814201075644512E9, 0.0, 2023-04-13 17:08:27.564
16.0, 7606.2539346520825, 11957.378620788888, -5978.868124350086, -6877.117678775511, 14987.470506128135, 14268.928977123378, 16242.342143337983, -134849.63892097937, -0.156, 0.99, 0.068, 192.0, 0.0, 0.0, 0.0, 0.0, 0.0, 0.0, 0.0, 0.0, 0.0, 1.681420107564654E9, 0.0, 2023-04-13 17:08:27.564
17.0, 7655.316013731482, 12006.351292890466, -5976.23061850436, -6868.109925760023, 14992.5890556084, 14229.947534793322, 16238.452939802759, -134873.86821196895, -0.156, 0.99, 0.068, 192.0, 0.0, 0.0, 0.0, 0.0, 0.0, 0.0, 0.0, 0.0, 0.0, 1.681420107564676E9, 0.0, 2023-04-13 17:08:27.564
18.0, 7887.75180432222, 12195.31294051563, -6029.964212174918, -6902.241039543276, 14941.470616039112, 14215.083624730543, 16197.884523616378, -134868.01205492165, -0.154, 0.992, 0.08, 192.0, 251.0, 48.0, 31.0, 0.0, 2.0, 128.0, 0.0, 0.0, 0.0, 1.6814201075646958E9, 0.0, 2023-04-13 17:08:27.564
19.0, 7852.994841694217, 12157.337326686065, -6033.272270354303, -6908.074844846112, 14935.301534569448, 14246.24195650124, 16193.458878214227, -134811.30567923852, -0.154, 0.992, 0.08, 192.0, 0.0, 0.0, 0.0, 0.0, 0.0, 0.0, 0.0, 0.0, 0.0, 1.6814201075647247E9, 0.0, 2023-04-13 17:08:27.564
20.0, 7648.588138650434, 11984.200714135255, -6003.499746739834, -6894.50733596174, 14962.660069782743, 14257.283718262162, 16204.433584741782, -134765.6187135719, -0.154, 0.992, 0.08, 192.0, 0.0, 0.0, 0.0, 0.0, 0.0, 0.0, 0.0, 0.0, 0.0, 1.681420107564766E9, 0.0, 2023-04-13 17:08:27.564
21.0, 7651.046830540518, 11996.248304396666, -5985.506592453313, -6879.062280543123, 14982.709584559154, 14197.492801844217, 16214.380111024395, -134789.13274873886, -0.154, 0.992, 0.08, 192.0, 0.0, 0.0, 0.0, 0.0, 0.0, 0.0, 0.0, 0.0, 0.0, 1.681420107564788E9, 0.0, 2023-04-13 17:08:27.564
22.0, 7868.059917457094, 12181.320748486609, -6022.47637778239, -6897.614228441028, 14954.546386545468, 14152.118760599944, 16195.53759044857, -134798.98986804366, -0.154, 0.992, 0.08, 192.0, 0.0, 0.0, 0.0, 0.0, 0.0, 0.0, 0.0, 0.0, 0.0, 1.681420107564813E9, 0.0, 2023-04-13 17:08:27.564
23.0, 7901.051092273127, 12205.70650168735, -6045.230453637892, -6918.222536828821, 14928.14897634375, 14162.981708405223, 16169.00606978012, -134744.8539429729, -0.154, 0.992, 0.08, 192.0, 0.0, 0.0, 0.0, 0.0, 0.0, 0.0, 0.0, 0.0, 0.0, 1.681420107564832E9, 0.0, 2023-04-13 17:08:27.564
24.0, 7688.865982158898, 12023.293915187587, -6010.4734910098905, -6897.256600529743, 14957.988555191585, 14163.294632827598, 16188.295625245051, -134695.5012912156, -0.154, 0.992, 0.08, 192.0, 0.0, 0.0, 0.0, 0.0, 0.0, 0.0, 0.0, 0.0, 0.0, 1.6814201075648513E9, 0.0, 2023-04-13 17:08:27.564
25.0, 7657.640595154834, 11999.712824787239, -6000.4375577494575, -6888.070033558612, 14964.358802361347, 14121.161594529343, 16189.72613689019, -134689.13104404582, -0.154, 0.992, 0.08, 192.0, 0.0, 0.0, 0.0, 0.0, 0.0, 0.0, 0.0, 0.0, 0.0, 1.6814201075648704E9, 0.0, 2023-04-13 17:08:27.564
26.0, 7851.139646904427, 12169.74254485876, -6012.8204241776975, -6894.619094684017, 14947.930270186696, 14060.566015311006, 16173.856398326923, -134709.2476140556, -0.154, 0.992, 0.08, 192.0, 0.0, 0.0, 0.0, 0.0, 0.0, 0.0, 0.0, 0.0, 0.0, 1.6814201075648892E9, 0.0, 2023-04-13 17:08:27.564
27.0, 7953.8682644210185, 12258.210749412865, -6019.883575425574, -6904.006827355245, 14941.112988127827, 14030.480567274162, 16169.43075292477, -134703.52556747504, -0.154, 0.992, 0.08, 192.0, 0.0, 0.0, 0.0, 0.0, 0.0, 0.0, 0.0, 0.0, 0.0, 1.6814201075649085E9, 0.0, 2023-04-13 17:08:27.564
28.0, 7740.409104872836, 12091.578494498552, -5985.037205819751, -6878.078803787089, 14977.211055423148, 14022.38923578134, 16200.119698061908, -134666.5781338904, -0.152, 0.992, 0.08600000000000001, 192.0, 251.0, 64.0, 31.0, 0.0, 2.0, 176.0, 0.0, 0.0, 0.0, 1.6814201075649273E9, 0.0, 2023-04-13 17:08:27.564
29.0, 7694.90095316183, 12059.190816782811, -6000.973999616385, -6893.501507461251, 14969.276186141515, 13995.544790690517, 16190.73196539068, -134639.7783922885, -0.152, 0.992, 0.08600000000000001, 192.0, 0.0, 0.0, 0.0, 0.0, 0.0, 0.0, 0.0, 0.0, 0.0, 1.6814201075649476E9, 0.0, 2023-04-13 17:08:27.564
30.0, 7889.785813067653, 12270.57126409665, -6033.205215120937, -6945.648127275483, 14942.655258495244, 13943.599336576384, 16166.748543590134, -134640.73951730007, -0.152, 0.992, 0.08600000000000001, 192.0, 0.0, 0.0, 0.0, 0.0, 0.0, 0.0, 0.0, 0.0, 0.0, 1.681420107564967E9, 0.0, 2023-04-13 17:08:27.564
31.0, 8043.811684109174, 12440.779798123813, -6058.90972124454, -6972.3137584106635, 14914.112080825817, 13918.699493253172, 16138.026551965066, -134618.58893854488, -0.152, 0.992, 0.08600000000000001, 192.0, 0.0, 0.0, 0.0, 0.0, 0.0, 0.0, 0.0, 0.0, 0.0, 1.681420107564986E9, 0.0, 2023-04-13 17:08:27.564
32.0, 7875.36893789398, 12298.95797955489, -6010.138214843061, -6924.637487487494, 14957.072133668917, 13917.738368241593, 16163.462837155204, -134572.72315892257, -0.152, 0.992, 0.08600000000000001, 192.0, 0.0, 0.0, 0.0, 0.0, 0.0, 0.0, 0.0, 0.0, 0.0, 1.681420107565086E9, 0.0, 2023-04-13 17:08:27.565
33.0, 7751.070886978017, 12156.555015630129, -5981.483278451357, -6883.487925945274, 14978.4851048571, 13899.409937788241, 16170.838912825457, -134544.98464405353, -0.152, 0.992, 0.08600000000000001, 192.0, 0.0, 0.0, 0.0, 0.0, 0.0, 0.0, 0.0, 0.0, 0.0, 1.6814201075651133E9, 0.0, 2023-04-13 17:08:27.565
34.0, 7781.916294326341, 12151.570576616596, -5970.41916494598, -6865.204198980832, 14978.10512520136, 13847.062152273913, 16160.244185953641, -134561.1673070392, -0.152, 0.992, 0.08600000000000001, 192.0, 0.0, 0.0, 0.0, 0.0, 0.0, 0.0, 0.0, 0.0, 0.0, 1.681420107565137E9, 0.0, 2023-04-13 17:08:27.565
35.0, 7936.389200256968, 12265.206845427376, -5972.587284158145, -6889.902876603946, 14967.242177396081, 13810.87467800077, 16146.43080788026, -134569.28099027646, -0.152, 0.992, 0.08600000000000001, 192.0, 0.0, 0.0, 0.0, 0.0, 0.0, 0.0, 0.0, 0.0, 0.0, 1.6814201075651567E9, 0.0, 2023-04-13 17:08:27.565
36.0, 7838.086228142528, 12227.790025209193, -5963.80304858721, -6918.490757762284, 14988.118706717338, 13832.846442800337, 16179.645500140847, -134519.41424839667, -0.152, 0.992, 0.08600000000000001, 192.0, 0.0, 0.0, 0.0, 0.0, 0.0, 0.0, 0.0, 0.0, 0.0, 1.6814201075651755E9, 0.0, 2023-04-13 17:08:27.565
37.0, 7853.799504494608, 12272.180589697433, -5988.971112843885, -6964.222426917842, 14977.367517634335, 13860.897882091747, 16182.48417168667, -134470.5309832729, -0.152, 0.992, 0.08600000000000001, 192.0, 0.0, 0.0, 0.0, 0.0, 0.0, 0.0, 0.0, 0.0, 0.0, 1.6814201075651948E9, 0.0, 2023-04-13 17:08:27.565
38.0, 7927.493205963756, 12311.296142494219, -5982.42205171848, -6945.178740641921, 14963.464732583134, 13863.580091426384, 16171.688279114758, -134461.32206455732, -0.168, 0.974, 0.084, 192.0, 250.0, 192.0, 30.0, 112.0, 2.0, 160.0, 0.0, 0.0, 0.0, 1.681420107565214E9, 0.0, 2023-04-13 17:08:27.565
39.0, 8017.213108207358, 12347.617727234094, -5960.2267694743605, -6921.597650241572, 14939.034275893484, 13860.137922780266, 16147.347229402929, -134462.55141050238, -0.168, 0.974, 0.084, 192.0, 0.0, 0.0, 0.0, 0.0, 0.0, 0.0, 0.0, 0.0, 0.0, 1.6814201075652344E9, 0.0, 2023-04-13 17:08:27.565
40.0, 7785.313759483548, 12176.716289128815, -5872.362062020548, -6856.308204687621, 14994.10897423136, 13850.88430057577, 16203.114831818919, -134449.74386092948, -0.168, 0.974, 0.084, 192.0, 0.0, 0.0, 0.0, 0.0, 0.0, 0.0, 0.0, 0.0, 0.0, 1.6814201075652535E9, 0.0, 2023-04-13 17:08:27.565
41.0, 7547.871178134821, 11970.409687806332, -5830.005506277741, -6829.486111341252, 15035.906736362784, 13855.041725044457, 16254.143864410386, -134419.14432277015, -0.168, 0.974, 0.084, 192.0, 0.0, 0.0, 0.0, 0.0, 0.0, 0.0, 0.0, 0.0, 0.0, 1.6814201075652866E9, 0.0, 2023-04-13 17:08:27.565
42.0, 7581.421146562237, 12021.706941331262, -5860.448582225869, -6869.965120549813, 15002.937913291207, 13846.369248195799, 16246.767788740133, -134391.22699394549, -0.168, 0.974, 0.084, 192.0, 0.0, 0.0, 0.0, 0.0, 0.0, 0.0, 0.0, 0.0, 0.0, 1.6814201075653064E9, 0.0, 2023-04-13 17:08:27.565
43.0, 7820.227184322737, 12257.070810445644, -5893.97619890883, -6906.711388434338, 14963.956470961151, 13817.535497848452, 16220.906820405344, -134384.14149095316, -0.168, 0.974, 0.084, 192.0, 0.0, 0.0, 0.0, 0.0, 0.0, 0.0, 0.0, 0.0, 0.0, 1.68142010756533E9, 0.0, 2023-04-13 17:08:27.565
44.0, 7817.589678477011, 12263.32929889313, -5894.892620431498, -6917.551984495161, 14955.5298633015, 13834.008733512013, 16226.137128607885, -134329.8044001823, -0.168, 0.974, 0.084, 192.0, 0.0, 0.0, 0.0, 0.0, 0.0, 0.0, 0.0, 0.0, 0.0, 1.681420107565349E9, 0.0, 2023-04-13 17:08:27.565
45.0, 7626.41520815077, 12080.29086354862, -5844.981175062797, -6896.898972618458, 14994.399546909279, 13827.459672386609, 16269.7900855291, -134291.22528925244, -0.168, 0.974, 0.084, 192.0, 0.0, 0.0, 0.0, 0.0, 0.0, 0.0, 0.0, 0.0, 0.0, 1.6814201075653682E9, 0.0, 2023-04-13 17:08:27.565
46.0, 7619.597926091901, 12054.63106091393, -5840.555529660646, -6881.923303833402, 15004.077852258428, 13784.991357921524, 16294.779335830133, -134292.38757996412, -0.168, 0.974, 0.084, 192.0, 0.0, 0.0, 0.0, 0.0, 0.0, 0.0, 0.0, 0.0, 0.0, 1.6814201075653872E9, 0.0, 2023-04-13 17:08:27.565
47.0, 7823.870518668952, 12183.734736887782, -5890.288161073704, -6910.712350691838, 14945.248060852058, 13759.689183198117, 16264.090390692996, -134267.42068140753, -0.168, 0.974, 0.084, 192.0, 0.0, 0.0, 0.0, 0.0, 0.0, 0.0, 0.0, 0.0, 0.0, 1.681420107565432E9, 0.0, 2023-04-13 17:08:27.565
48.0, 7846.624594524455, 12125.262573392698, -5864.49424797228, -6906.465519245329, 14944.510453285035, 13739.416150977153, 16262.972803470231, -134237.67050953754, -0.166, 0.984, 0.082, 192.0, 250.0, 208.0, 30.0, 192.0, 2.0, 144.0, 0.0, 0.0, 0.0, 1.681420107565452E9, 0.0, 2023-04-13 17:08:27.565
49.0, 7628.158644218283, 11787.95239781766, -5786.553715056624, -6852.821332552592, 15019.522907677045, 13708.86131630675, 16320.528545442647, -134225.0864774092, -0.166, 0.984, 0.082, 192.0, 0.0, 0.0, 0.0, 0.0, 0.0, 0.0, 0.0, 0.0, 0.0, 1.6814201075654721E9, 0.0, 2023-04-13 17:08:27.565
50.0, 7586.159716386762, 11547.559386200832, -5796.1649651724065, -6851.703745329827, 15019.679369888232, 13673.545560067363, 16321.84729836551, -134222.65013726355, -0.166, 0.984, 0.082, 192.0, 0.0, 0.0, 0.0, 0.0, 0.0, 0.0, 0.0, 0.0, 0.0, 1.6814201075654914E9, 0.0, 2023-04-13 17:08:27.565
51.0, 7764.571340629022, 11528.247478991447, -5821.310677684627, -6864.868922814003, 14988.163410206249, 13649.740952222463, 16304.859972579477, -134226.40523033205, -0.166, 0.984, 0.082, 192.0, 0.0, 0.0, 0.0, 0.0, 0.0, 0.0, 0.0, 0.0, 0.0, 1.6814201075655105E9, 0.0, 2023-04-13 17:08:27.565
52.0, 7881.158039707904, 11487.857876760707, -5808.793700789654, -6848.753315061726, 14989.437459640201, 13654.3230598358, 16324.015417577675, -134220.2361488624, -0.166, 0.984, 0.082, 192.0, 0.0, 0.0, 0.0, 0.0, 0.0, 0.0, 0.0, 0.0, 0.0, 1.6814201075655298E9, 0.0, 2023-04-13 17:08:27.565
53.0, 7664.480228958158, 11155.666250665934, -5750.90268265041, -6808.0731401530675, 15046.076780089948, 13667.734106508984, 16384.61099679601, -134205.8192736887, -0.166, 0.984, 0.082, 192.0, 0.0, 0.0, 0.0, 0.0, 0.0, 0.0, 0.0, 0.0, 0.0, 1.6814201075655491E9, 0.0, 2023-04-13 17:08:27.565
54.0, 7571.16169585725, 10989.659844596368, -5743.481903491247, -6794.662093479883, 15056.984431384139, 13654.144245880158, 16389.662491042913, -134214.64821274855, -0.166, 0.984, 0.082, 192.0, 0.0, 0.0, 0.0, 0.0, 0.0, 0.0, 0.0, 0.0, 0.0, 1.6814201075655684E9, 0.0, 2023-04-13 17:08:27.565
55.0, 7700.868868931398, 11082.397232341436, -5765.498371779725, -6794.706796968794, 15030.855242115886, 13628.305629289822, 16363.153322118918, -134247.75114628687, -0.166, 0.984, 0.082, 192.0, 0.0, 0.0, 0.0, 0.0, 0.0, 0.0, 0.0, 0.0, 0.0, 1.6814201075655873E9, 0.0, 2023-04-13 17:08:27.565
56.0, 7851.564330049077, 11226.655391055989, -5802.825785020088, -6801.680541238849, 14997.372328921836, 13654.256004602434, 16350.23401382375, -134238.45282059346, -0.166, 0.984, 0.082, 192.0, 0.0, 0.0, 0.0, 0.0, 0.0, 0.0, 0.0, 0.0, 0.0, 1.681420107565606E9, 0.0, 2023-04-13 17:08:27.565
57.0, 7656.545359676524, 11008.32355121655, -5779.222342875283, -6788.537715499129, 15015.253724486081, 13730.631915406218, 16358.034772638652, -134175.6667704185, -0.166, 0.984, 0.082, 192.0, 0.0, 0.0, 0.0, 0.0, 0.0, 0.0, 0.0, 0.0, 0.0, 1.6814201075656261E9, 0.0, 2023-04-13 17:08:27.565
58.0, 7510.834337572377, 10856.778723809568, -5762.637348489446, -6786.794279431615, 15024.753215879586, 13771.602662992796, 16356.984240649253, -134151.28101721776, -0.17, 0.998, 0.082, 192.0, 250.0, 176.0, 31.0, 48.0, 2.0, 144.0, 0.0, 0.0, 0.0, 1.6814201075656452E9, 0.0, 2023-04-13 17:08:27.565
59.0, 7559.605843973857, 10946.83390222, -5767.979415414264, -6786.302541053598, 15011.453927928678, 13776.810619450882, 16325.781205389645, -134169.78826162676, -0.17, 0.998, 0.082, 192.0, 0.0, 0.0, 0.0, 0.0, 0.0, 0.0, 0.0, 0.0, 0.0, 1.6814201075656655E9, 0.0, 2023-04-13 17:08:27.565
60.0, 7722.080674419484, 11137.114302768028, -5791.448747092337, -6797.366654558976, 14984.363613648846, 13795.340215604332, 16305.84344933551, -134180.24887803185, -0.17, 0.998, 0.082, 192.0, 0.0, 0.0, 0.0, 0.0, 0.0, 0.0, 0.0, 0.0, 0.0, 1.6814201075656843E9, 0.0, 2023-04-13 17:08:27.565
61.0, 7538.863425119332, 10965.721126284734, -5761.989147900242, -6781.541619484618, 15009.77754709453, 13872.163161297221, 16337.247650295218, -134132.88553153104, -0.17, 0.998, 0.082, 192.0, 0.0, 0.0, 0.0, 0.0, 0.0, 0.0, 0.0, 0.0, 0.0, 1.6814201075657032E9, 0.0, 2023-04-13 17:08:27.565
62.0, 7364.877446279222, 10774.7925251475, -5750.94738613932, -6770.879837379437, 15029.961172337673, 13966.264005454064, 16344.623725965468, -134102.3530486051, -0.17, 0.998, 0.082, 192.0, 0.0, 0.0, 0.0, 0.0, 0.0, 0.0, 0.0, 0.0, 0.0, 1.6814201075657322E9, 0.0, 2023-04-13 17:08:27.565
63.0, 7423.662534196679, 10833.309392131496, -5780.406985331415, -6786.3472445425095, 15000.725090590131, 14119.954600328756, 16309.777356359644, -134089.16551937646, -0.17, 0.998, 0.082, 192.0, 0.0, 0.0, 0.0, 0.0, 0.0, 0.0, 0.0, 0.0, 0.0, 1.681420107565853E9, 0.0, 2023-04-13 17:08:27.565
64.0, 7636.048810011007, 11069.276758346172, -5804.457462365325, -6793.879782423947, 14973.232444910103, 14275.299224293141, 16284.229312447229, -134083.5552315182, -0.17, 0.998, 0.082, 192.0, 0.0, 0.0, 0.0, 0.0, 0.0, 0.0, 0.0, 0.0, 0.0, 1.6814201075658784E9, 0.0, 2023-04-13 17:08:27.565
65.0, 7528.7157331366225, 10989.682196340824, -5794.265066893705, -6783.329759041043, 14983.693061315187, 14466.361935897105, 16289.101992738486, -134025.39599244547, -0.17, 0.998, 0.082, 192.0, 0.0, 0.0, 0.0, 0.0, 0.0, 0.0, 0.0, 0.0, 0.0, 1.6814201075658977E9, 0.0, 2023-04-13 17:08:27.565
66.0, 7330.746332495968, 10787.912999142767, -5770.639273004445, -6778.747651427705, 15011.230410484126, 14622.310056961782, 16293.773507329644, -133980.9607244683, -0.17, 0.998, 0.082, 192.0, 0.0, 0.0, 0.0, 0.0, 0.0, 0.0, 0.0, 0.0, 0.0, 1.681420107565917E9, 0.0, 2023-04-13 17:08:27.565
67.0, 7349.03005946041, 10825.016894938577, -5779.356453342015, -6779.82053516156, 15006.022454026039, 14727.765587301921, 16277.680251321824, -133978.45732908935, -0.17, 0.998, 0.082, 192.0, 0.0, 0.0, 0.0, 0.0, 0.0, 0.0, 0.0, 0.0, 0.0, 1.681420107565936E9, 0.0, 2023-04-13 17:08:27.565
68.0, 7565.1043731098625, 11069.612034513002, -5801.864660008509, -6799.758291215693, 14983.268378170536, 14816.591419767312, 16254.233271388206, -133988.8285385166, -0.17200000000000001, 1.006, 0.08600000000000001, 192.0, 250.0, 160.0, 31.0, 112.0, 2.0, 176.0, 0.0, 0.0, 0.0, 1.6814201075659614E9, 0.0, 2023-04-13 17:08:27.565
69.0, 7543.579643199402, 11071.62369151398, -5800.523555341191, -6797.478413281252, 14987.269340428036, 14951.215976621626, 16251.148730653375, -133945.8237821846, -0.17200000000000001, 1.006, 0.08600000000000001, 192.0, 0.0, 0.0, 0.0, 0.0, 0.0, 0.0, 0.0, 0.0, 0.0, 1.681420107565982E9, 0.0, 2023-04-13 17:08:27.565
70.0, 7308.305181062839, 10857.762200565601, -5766.839476447043, -6774.567875214562, 15018.941762321207, 15073.569425769976, 16264.045687204087, -133906.7529328767, -0.17200000000000001, 1.006, 0.08600000000000001, 192.0, 0.0, 0.0, 0.0, 0.0, 0.0, 0.0, 0.0, 0.0, 0.0, 1.6814201075660012E9, 0.0, 2023-04-13 17:08:27.566
71.0, 7250.280052456863, 10824.23458388264, -5780.921075453887, -6773.226770547244, 15019.232334999126, 15165.971537348216, 16266.236158160706, -133893.00661003668, -0.17200000000000001, 1.006, 0.08600000000000001, 192.0, 0.0, 0.0, 0.0, 0.0, 0.0, 0.0, 0.0, 0.0, 0.0, 1.6814201075660205E9, 0.0, 2023-04-13 17:08:27.566
72.0, 7440.739266960534, 11038.319592275571, -5802.825785020088, -6783.977959630247, 14994.86893354284, 15242.056875474082, 16232.97676241121, -133898.39338045043, -0.17200000000000001, 1.006, 0.08600000000000001, 192.0, 0.0, 0.0, 0.0, 0.0, 0.0, 0.0, 0.0, 0.0, 0.0, 1.6814201075660398E9, 0.0, 2023-04-13 17:08:27.566
73.0, 7480.324206390883, 11107.967627998309, -5782.61980803249, -6763.392002986909, 15010.895134317296, 15331.597963762042, 16240.531652037103, -133889.98912453523, -0.17200000000000001, 1.006, 0.08600000000000001, 192.0, 0.0, 0.0, 0.0, 0.0, 0.0, 0.0, 0.0, 0.0, 0.0, 1.6814201075660594E9, 0.0, 2023-04-13 17:08:27.566
74.0, 7237.606613350704, 10890.529857937081, -5767.890008436443, -6750.875026091937, 15038.991277097617, 15452.878529176538, 16255.55202431107, -133839.51888555515, -0.17200000000000001, 1.006, 0.08600000000000001, 192.0, 0.0, 0.0, 0.0, 0.0, 0.0, 0.0, 0.0, 0.0, 0.0, 1.6814201075660784E9, 0.0, 2023-04-13 17:08:27.566
75.0, 7171.6466154630925, 10837.086836944442, -5784.273837122183, -6765.761287899171, 15030.050579315493, 15541.972582575392, 16221.398558783361, -133816.11660911044, -0.17200000000000001, 1.006, 0.08600000000000001, 192.0, 0.0, 0.0, 0.0, 0.0, 0.0, 0.0, 0.0, 0.0, 0.0, 1.6814201075660975E9, 0.0, 2023-04-13 17:08:27.566
76.0, 7348.203044915563, 11034.653906184902, -5814.426340392392, -6782.994482874213, 15004.368424936347, 15606.122089162123, 16201.952541107243, -133818.41883878934, -0.17200000000000001, 1.006, 0.08600000000000001, 192.0, 0.0, 0.0, 0.0, 0.0, 0.0, 0.0, 0.0, 0.0, 0.0, 1.6814201075661168E9, 0.0, 2023-04-13 17:08:27.566
77.0, 7443.801455950911, 11166.819771149132, -5842.969518061819, -6800.048863893612, 14978.619215323832, 15707.017863633379, 16180.62897689688, -133781.85138486046, -0.17200000000000001, 1.006, 0.08600000000000001, 192.0, 0.0, 0.0, 0.0, 0.0, 0.0, 0.0, 0.0, 0.0, 0.0, 1.681420107566136E9, 0.0, 2023-04-13 17:08:27.566
78.0, 7203.09551991171, 10950.253719121662, -5809.173680445395, -6788.24714282121, 15007.184744737715, 15835.85331867377, 16193.168305536308, -133711.44338982622, -0.17, 1.014, 0.078, 192.0, 250.0, 176.0, 31.0, 176.0, 2.0, 112.0, 0.0, 0.0, 0.0, 1.6814201075661683E9, 0.0, 2023-04-13 17:08:27.566
79.0, 7103.317332663219, 10866.837008814457, -5792.208706403817, -6773.718508925261, 15030.11763454886, 15911.044587021423, 16200.745546906657, -133692.01972389457, -0.17, 1.014, 0.078, 192.0, 0.0, 0.0, 0.0, 0.0, 0.0, 0.0, 0.0, 0.0, 0.0, 1.6814201075662189E9, 0.0, 2023-04-13 17:08:27.566
80.0, 7241.764037819391, 11026.651981669902, -5831.547776645158, -6798.3277795705535, 15001.417994668245, 15978.077468642889, 16173.25290122663, -133680.28505805554, -0.17, 1.014, 0.078, 192.0, 0.0, 0.0, 0.0, 0.0, 0.0, 0.0, 0.0, 0.0, 0.0, 1.6814201075662384E9, 0.0, 2023-04-13 17:08:27.566
81.0, 7392.861830337266, 11205.443585567902, -5852.960747833342, -6818.846680980526, 14972.517189087534, 16054.676896891226, 16141.513424100092, -133660.32495025694, -0.17, 1.014, 0.078, 192.0, 0.0, 0.0, 0.0, 0.0, 0.0, 0.0, 0.0, 0.0, 0.0, 1.6814201075662577E9, 0.0, 2023-04-13 17:08:27.566
82.0, 7171.13252534062, 11012.838603596521, -5828.306773699138, -6801.099395883012, 14994.511305631555, 16158.545453375036, 16148.375409647871, -133608.80417928746, -0.17, 1.014, 0.078, 192.0, 0.0, 0.0, 0.0, 0.0, 0.0, 0.0, 0.0, 0.0, 0.0, 1.6814201075662768E9, 0.0, 2023-04-13 17:08:27.566
83.0, 7021.2640787677865, 10879.085764775964, -5802.512860597713, -6785.229657319744, 15023.30035248999, 16227.54528850857, 16170.369526191895, -133590.09576917838, -0.17, 1.014, 0.078, 192.0, 0.0, 0.0, 0.0, 0.0, 0.0, 0.0, 0.0, 0.0, 0.0, 1.6814201075662956E9, 0.0, 2023-04-13 17:08:27.566
84.0, 7118.158890981543, 10997.192382477806, -5825.6916195978665, -6791.421090533864, 15013.510288418567, 16284.341071169505, 16188.653253156335, -133587.81589124392, -0.17, 1.014, 0.078, 192.0, 0.0, 0.0, 0.0, 0.0, 0.0, 0.0, 0.0, 0.0, 0.0, 1.6814201075663147E9, 0.0, 2023-04-13 17:08:27.566
85.0, 7311.792053197868, 11222.565021820668, -5877.838239412098, -6827.429750851364, 14962.995345949574, 16373.368069334992, 16143.793302034534, -133552.18721058217, -0.17, 1.014, 0.078, 192.0, 0.0, 0.0, 0.0, 0.0, 0.0, 0.0, 0.0, 0.0, 0.0, 1.6814201075663335E9, 0.0, 2023-04-13 17:08:27.566
86.0, 7136.867301090634, 11076.563427038602, -5852.156085032951, -6819.651343780916, 14979.356822890857, 16494.313358582658, 16147.77191254758, -133483.56735510437, -0.17, 1.014, 0.078, 192.0, 0.0, 0.0, 0.0, 0.0, 0.0, 0.0, 0.0, 0.0, 0.0, 1.6814201075663567E9, 0.0, 2023-04-13 17:08:27.566
87.0, 6955.996984958289, 10908.63477094588, -5794.24271514925, -6779.418203761364, 15026.049617057994, 16554.28308895625, 16169.810732580512, -133476.43714862314, -0.17, 1.014, 0.078, 192.0, 0.0, 0.0, 0.0, 0.0, 0.0, 0.0, 0.0, 0.0, 0.0, 1.6814201075663755E9, 0.0, 2023-04-13 17:08:27.566
88.0, 7010.043503051223, 10990.822135308044, -5817.980267760786, -6775.707814181783, 15010.425747683734, 16592.504571974823, 16142.38514213385, -133493.04449475344, -0.17, 1.002, 0.098, 192.0, 250.0, 176.0, 31.0, 80.0, 3.0, 16.0, 0.0, 0.0, 0.0, 1.6814201075663946E9, 0.0, 2023-04-13 17:08:27.566
89.0, 7212.036217693832, 11231.259850413782, -5871.579750964613, -6809.771872731671, 14963.956470961151, 16658.62103207362, 16119.966342445177, -133480.95220100312, -0.17, 1.002, 0.098, 192.0, 0.0, 0.0, 0.0, 0.0, 0.0, 0.0, 0.0, 0.0, 0.0, 1.6814201075664177E9, 0.0, 2023-04-13 17:08:27.566
90.0, 7102.7361873073805, 11149.29600349617, -5865.120096817029, -6805.34622732952, 14981.971976992128, 16774.894806730128, 16162.278194699073, -133414.43340950413, -0.17, 1.002, 0.098, 192.0, 0.0, 0.0, 0.0, 0.0, 0.0, 0.0, 0.0, 0.0, 0.0, 1.6814201075664365E9, 0.0, 2023-04-13 17:08:27.566
91.0, 6891.1769260379, 10935.032181147597, -5820.058979995129, -6779.641721205917, 15022.808614111975, 16843.358199996735, 16194.174134036797, -133393.6909906496, -0.17, 1.002, 0.098, 192.0, 0.0, 0.0, 0.0, 0.0, 0.0, 0.0, 0.0, 0.0, 0.0, 1.6814201075664556E9, 0.0, 2023-04-13 17:08:27.566
92.0, 6903.872716888513, 10969.587978075502, -5839.639108137979, -6782.994482874213, 15013.97967505213, 16883.77015397193, 16188.496790945148, -133400.93295585312, -0.17, 1.002, 0.098, 192.0, 0.0, 0.0, 0.0, 0.0, 0.0, 0.0, 0.0, 0.0, 0.0, 1.681420107566475E9, 0.0, 2023-04-13 17:08:27.566
93.0, 7116.795434569769, 11213.467861827357, -5903.296876346693, -6818.265535624688, 14956.870967968818, 16942.041151766916, 16131.90217398431, -133388.8853655917, -0.17, 1.002, 0.098, 192.0, 0.0, 0.0, 0.0, 0.0, 0.0, 0.0, 0.0, 0.0, 0.0, 1.6814201075664935E9, 0.0, 2023-04-13 17:08:27.566
94.0, 7068.180390379476, 11193.59716100659, -5903.587449024612, -6817.304410613109, 14954.658145267744, 17030.4199493432, 16118.491127311127, -133346.48410635997, -0.17, 1.002, 0.098, 192.0, 0.0, 0.0, 0.0, 0.0, 0.0, 0.0, 0.0, 0.0, 0.0, 1.6814201075665336E9, 0.0, 2023-04-13 17:08:27.566
95.0, 6826.178053161866, 10951.438361577793, -5876.340672533593, -6807.1567186304, 14990.01860499604, 17117.43529050771, 16146.810787536, -133300.93125116007, -0.17, 1.002, 0.098, 192.0, 0.0, 0.0, 0.0, 0.0, 0.0, 0.0, 0.0, 0.0, 0.0, 1.6814201075665529E9, 0.0, 2023-04-13 17:08:27.566
96.0, 6782.815668918571, 10928.125492110908, -5882.867381914542, -6812.655247766405, 14988.833962539908, 17158.853072983395, 16141.446368866727, -133303.3228878168, -0.17, 1.002, 0.098, 192.0, 0.0, 0.0, 0.0, 0.0, 0.0, 0.0, 0.0, 0.0, 0.0, 1.681420107566572E9, 0.0, 2023-04-13 17:08:27.566
97.0, 6967.575188586139, 11157.163817544439, -5936.600975585101, -6842.472474869785, 14943.57168001791, 17212.296093976034, 16086.841057162412, -133297.28791681386, -0.17, 1.002, 0.098, 192.0, 0.0, 0.0, 0.0, 0.0, 0.0, 0.0, 0.0, 0.0, 0.0, 1.6814201075665913E9, 0.0, 2023-04-13 17:08:27.566
98.0, 6990.463374908373, 11217.200603151394, -5933.337620894626, -6847.59102435005, 14945.538633529977, 17283.352289599454, 16072.334775010917, -133272.6562944241, -0.182, 0.978, 0.112, 192.0, 250.0, 80.0, 30.0, 144.0, 3.0, 128.0, 0.0, 0.0, 0.0, 1.68142010756661E9, 0.0, 2023-04-13 17:08:27.566
99.0, 6726.779845569115, 10959.306175626061, -5904.839146714109, -6827.519157829185, 14990.398584651779, 17353.872043355947, 16101.101470124899, -133246.03536677783, -0.182, 0.978, 0.112, 192.0, 0.0, 0.0, 0.0, 0.0, 0.0, 0.0, 0.0, 0.0, 0.0, 1.6814201075666308E9, 0.0, 2023-04-13 17:08:27.566
100.0, 6647.051173097036, 10876.001224041132, -5922.832301000632, -6844.327669659576, 14991.717337574642, 17405.996311425723, 16090.238522319618, -133234.41245966108, -0.182, 0.978, 0.112, 192.0, 0.0, 0.0, 0.0, 0.0, 0.0, 0.0, 0.0, 0.0, 0.0, 1.6814201075666497E9, 0.0, 2023-04-13 17:08:27.566
101.0, 6793.745671957216, 11057.586795996047, -5972.006138802307, -6877.385899708975, 14953.764075489531, 17458.142931239956, 16041.019981029032, -133225.0470787343, -0.182, 0.978, 0.112, 192.0, 0.0, 0.0, 0.0, 0.0, 0.0, 0.0, 0.0, 0.0, 0.0, 1.681420107566669E9, 0.0, 2023-04-13 17:08:27.566
102.0, 6895.490812717773, 11194.871210440542, -5980.768022628788, -6888.785289381181, 14942.72231372861, 17517.106833113055, 16014.220239427119, -133209.84789250468, -0.182, 0.978, 0.112, 192.0, 0.0, 0.0, 0.0, 0.0, 0.0, 0.0, 0.0, 0.0, 0.0, 1.681420107566688E9, 0.0, 2023-04-13 17:08:27.566
103.0, 6651.879149899381, 10979.13217295792, -5973.70487138091, -6884.426699212397, 14964.314098872435, 17615.365101738586, 16038.918917050234, -133148.3805952526, -0.182, 0.978, 0.112, 192.0, 0.0, 0.0, 0.0, 0.0, 0.0, 0.0, 0.0, 0.0, 0.0, 1.6814201075667107E9, 0.0, 2023-04-13 17:08:27.566
104.0, 6527.804616427972, 10889.72519513669, -5966.3958509440245, -6881.140992777467, 14980.16148569125, 17669.053991920235, 16034.515623392539, -133130.81212411073, -0.182, 0.978, 0.112, 192.0, 0.0, 0.0, 0.0, 0.0, 0.0, 0.0, 0.0, 0.0, 0.0, 1.68142010756674E9, 0.0, 2023-04-13 17:08:27.566
105.0, 6678.3436153344655, 11081.592569541046, -6004.393816518047, -6895.379053995497, 14958.547348802967, 17708.34835867266, 16004.810155011435, -133129.56042642123, -0.182, 0.978, 0.112, 192.0, 0.0, 0.0, 0.0, 0.0, 0.0, 0.0, 0.0, 0.0, 0.0, 1.68142010756678E9, 0.0, 2023-04-13 17:08:27.566
106.0, 6865.695937358849, 11311.99435138635, -6034.6580785105325, -6924.481025276306, 14928.19367983266, 17768.720420446447, 15982.659576256227, -133107.90158604403, -0.182, 0.978, 0.112, 192.0, 0.0, 0.0, 0.0, 0.0, 0.0, 0.0, 0.0, 0.0, 0.0, 1.6814201075668004E9, 0.0, 2023-04-13 17:08:27.566
107.0, 6676.220199611212, 11150.838273863588, -5998.80588040422, -6894.261466772731, 14969.902034986262, 17848.940831296546, 16003.759623022035, -133062.81811747767, -0.182, 0.978, 0.112, 192.0, 0.0, 0.0, 0.0, 0.0, 0.0, 0.0, 0.0, 0.0, 0.0, 1.6814201075668235E9, 0.0, 2023-04-13 17:08:27.566
108.0, 6542.824988701938, 11043.728714433755, -5994.46964197989, -6883.644388156461, 14994.801878309474, 17897.77939293139, 16017.282428417497, -133046.4566405364, -0.186, 0.982, 0.14200000000000002, 192.0, 250.0, 48.0, 30.0, 176.0, 4.0, 112.0, 0.0, 0.0, 0.0, 1.6814201075668428E9, 0.0, 2023-04-13 17:08:27.566
109.0, 6651.454466754731, 11205.577696034634, -6051.645404296566, -6912.522841992717, 14954.635793523288, 17943.667524298136, 15978.748020976547, -133033.38087003003, -0.186, 0.982, 0.14200000000000002, 192.0, 0.0, 0.0, 0.0, 0.0, 0.0, 0.0, 0.0, 0.0, 0.0, 1.6814201075668633E9, 0.0, 2023-04-13 17:08:27.566
110.0, 6876.625940397495, 11465.796704983319, -6096.907686818563, -6942.18360688491, 14903.964388843107, 18004.061937816376, 15924.209764505598, -133004.74828538278, -0.186, 0.982, 0.14200000000000002, 192.0, 0.0, 0.0, 0.0, 0.0, 0.0, 0.0, 0.0, 0.0, 0.0, 1.6814201075669096E9, 0.0, 2023-04-13 17:08:27.566
111.0, 6776.735994426727, 11386.045680766783, -6048.091476928173, -6891.2439812712655, 14954.635793523288, 18067.138560669253, 15954.786950920457, -132971.51124137774, -0.186, 0.982, 0.14200000000000002, 192.0, 0.0, 0.0, 0.0, 0.0, 0.0, 0.0, 0.0, 0.0, 0.0, 1.681420107566929E9, 0.0, 2023-04-13 17:08:27.566
112.0, 6629.616812421896, 11275.873932346574, -6061.547227090267, -6889.634655670483, 14961.34131685988, 18132.137433545286, 15950.271898540486, -132927.85828445654, -0.186, 0.982, 0.14200000000000002, 192.0, 0.0, 0.0, 0.0, 0.0, 0.0, 0.0, 0.0, 0.0, 0.0, 1.6814201075669484E9, 0.0, 2023-04-13 17:08:27.566
113.0, 6730.445531659786, 11407.391596721602, -6107.413006712557, -6923.184624097899, 14925.220897820103, 18173.532864276513, 15899.935770027134, -132905.30537430113, -0.186, 0.982, 0.14200000000000002, 192.0, 0.0, 0.0, 0.0, 0.0, 0.0, 0.0, 0.0, 0.0, 0.0, 1.6814201075669816E9, 0.0, 2023-04-13 17:08:27.566
114.0, 7009.596468162116, 11720.181908629169, -6134.9727076259505, -6938.227348116321, 14900.499868452534, 18207.261646659572, 15865.402324843684, -132887.6698479259, -0.186, 0.982, 0.14200000000000002, 192.0, 0.0, 0.0, 0.0, 0.0, 0.0, 0.0, 0.0, 0.0, 0.0, 1.6814201075670018E9, 0.0, 2023-04-13 17:08:27.567
115.0, 6967.195208930399, 11692.041062359938, -6113.358570737669, -6908.454824501851, 14924.103310597338, 18261.934013597252, 15899.108755482288, -132833.89155076642, -0.186, 0.982, 0.14200000000000002, 192.0, 0.0, 0.0, 0.0, 0.0, 0.0, 0.0, 0.0, 0.0, 0.0, 1.681420107567021E9, 0.0, 2023-04-13 17:08:27.567
116.0, 6820.2101373923, 11555.315441526824, -6119.706466162976, -6898.105966819045, 14938.028447392995, 18318.081595668984, 15900.226342705053, -132759.594352197, -0.186, 0.982, 0.14200000000000002, 192.0, 0.0, 0.0, 0.0, 0.0, 0.0, 0.0, 0.0, 0.0, 0.0, 1.6814201075670395E9, 0.0, 2023-04-13 17:08:27.567
117.0, 6931.477121290818, 11672.483285961544, -6141.6111757291765, -6908.410121012941, 14925.019732120007, 18345.842462282475, 15871.034964446422, -132722.33399418998, -0.186, 0.982, 0.14200000000000002, 192.0, 0.0, 0.0, 0.0, 0.0, 0.0, 0.0, 0.0, 0.0, 0.0, 1.6814201075670588E9, 0.0, 2023-04-13 17:08:27.567
118.0, 7227.302459156806, 11980.602083277952, -6176.8822284796515, -6926.447978788374, 14901.818621375398, 18377.671346386833, 15843.18469085511, -132705.1231509594, -0.18, 0.968, 0.168, 192.0, 250.0, 96.0, 30.0, 64.0, 5.0, 64.0, 0.0, 0.0, 0.0, 1.6814201075670776E9, 0.0, 2023-04-13 17:08:27.567
119.0, 7293.553029722337, 12029.172423979333, -6183.855972749708, -6921.75411245276, 14898.354100984825, 18461.5574433276, 15829.237202314998, -132632.99407160212, -0.18, 0.968, 0.168, 192.0, 0.0, 0.0, 0.0, 0.0, 0.0, 0.0, 0.0, 0.0, 0.0, 1.681420107567098E9, 0.0, 2023-04-13 17:08:27.567
120.0, 7123.053923017254, 11846.379857823833, -6127.507224977878, -6874.033138040679, 14956.021601679517, 18510.552467173635, 15851.767760725948, -132590.30223969248, -0.18, 0.968, 0.168, 192.0, 0.0, 0.0, 0.0, 0.0, 0.0, 0.0, 0.0, 0.0, 0.0, 1.6814201075671167E9, 0.0, 2023-04-13 17:08:27.567
121.0, 7141.292946492786, 11881.293282663022, -6128.043666844806, -6854.654175597928, 14959.329659858902, 18513.547600930644, 15850.985449670012, -132588.96113502517, -0.18, 0.968, 0.168, 192.0, 0.0, 0.0, 0.0, 0.0, 0.0, 0.0, 0.0, 0.0, 0.0, 1.6814201080448072E9, 0.0, 2023-04-13 17:08:28.044
122.0, 7379.964873786555, 12155.504483640729, -6176.5916558017325, -6877.207085753333, 14906.624246433288, 18535.608772708034, 15810.014702083434, -132563.1448701793, -0.18, 0.968, 0.168, 192.0, 0.0, 0.0, 0.0, 0.0, 0.0, 0.0, 0.0, 0.0, 0.0, 1.6814201080449975E9, 0.0, 2023-04-13 17:08:28.044
123.0, 7476.971444722587, 12250.968784209346, -6204.665446837598, -6900.028216842201, 14867.41928665868, 18599.892389761495, 15769.960376019524, -132481.29278198397, -0.18, 0.968, 0.168, 192.0, 0.0, 0.0, 0.0, 0.0, 0.0, 0.0, 0.0, 0.0, 0.0, 1.6814201080450208E9, 0.0, 2023-04-13 17:08:28.045
124.0, 7322.520890536415, 12054.318136491554, -6166.93570219704, -6875.955388063835, 14897.549438184435, 18647.143977540014, 15762.986631749467, -132403.57576651286, -0.18, 0.968, 0.168, 192.0, 0.0, 0.0, 0.0, 0.0, 0.0, 0.0, 0.0, 0.0, 0.0, 1.681420108045043E9, 0.0, 2023-04-13 17:08:28.045
125.0, 7387.005673289976, 12071.86425588897, -6162.867684706174, -6863.796039080148, 14908.792365645453, 18650.58614618613, 15747.653335053128, -132368.1929550401, -0.18, 0.968, 0.168, 192.0, 0.0, 0.0, 0.0, 0.0, 0.0, 0.0, 0.0, 0.0, 0.0, 1.6814201080451748E9, 0.0, 2023-04-13 17:08:28.045
126.0, 7676.237246541649, 12336.173634072977, -6189.578019330266, -6882.795021867159, 14890.03925204745, 18653.89420436552, 15724.519279541884, -132338.24161747, -0.18, 0.968, 0.168, 192.0, 0.0, 0.0, 0.0, 0.0, 0.0, 0.0, 0.0, 0.0, 0.0, 1.6814201080451963E9, 0.0, 2023-04-13 17:08:28.045
127.0, 7848.45743756979, 12511.500717580406, -6197.55759210081, -6898.530649963695, 14884.5630746559, 18675.01660287578, 15713.142241614134, -132291.6382302807, -0.18, 0.968, 0.168, 192.0, 0.0, 0.0, 0.0, 0.0, 0.0, 0.0, 0.0, 0.0, 0.0, 1.6814201080452163E9, 0.0, 2023-04-13 17:08:28.045
128.0, 7646.9341095607415, 12335.860709650602, -6149.210768843981, -6865.315957703109, 14943.77284571801, 18720.547106331243, 15757.331640402275, -132215.5081886659, -0.17200000000000001, 0.9440000000000001, 0.168, 192.0, 250.0, 160.0, 29.0, 128.0, 5.0, 64.0, 0.0, 0.0, 0.0, 1.6814201080452433E9, 0.0, 2023-04-13 17:08:28.045
129.0, 7523.06074178943, 12253.852159244081, -6141.83469317373, -6855.771762820693, 14967.48804658509, 18754.18648173648, 15775.16833247761, -132155.78432748132, -0.17200000000000001, 0.9440000000000001, 0.168, 192.0, 0.0, 0.0, 0.0, 0.0, 0.0, 0.0, 0.0, 0.0, 0.0, 1.6814201080452647E9, 0.0, 2023-04-13 17:08:28.045
130.0, 7605.3151613849595, 12418.204536223953, -6138.4372280165235, -6842.383067891964, 14968.53857857449, 18744.865804298617, 15751.363724632709, -132148.67647274453, -0.17200000000000001, 0.9440000000000001, 0.168, 192.0, 0.0, 0.0, 0.0, 0.0, 0.0, 0.0, 0.0, 0.0, 0.0, 1.6814201080452845E9, 0.0, 2023-04-13 17:08:28.045
131.0, 7738.017468216118, 12619.481995043994, -6144.002812385895, -6833.799998021126, 14958.949680203163, 18753.292411958268, 15728.654352266116, -132126.90587364507, -0.17200000000000001, 0.9440000000000001, 0.168, 192.0, 0.0, 0.0, 0.0, 0.0, 0.0, 0.0, 0.0, 0.0, 0.0, 1.6814201080453033E9, 0.0, 2023-04-13 17:08:28.045
132.0, 7479.228970912573, 12447.060638315754, -6098.5393641638, -6797.925448170358, 15001.552105134977, 18795.96189212345, 15752.59307057775, -132063.5163263698, -0.17200000000000001, 0.9440000000000001, 0.168, 192.0, 0.0, 0.0, 0.0, 0.0, 0.0, 0.0, 0.0, 0.0, 0.0, 1.681420108045323E9, 0.0, 2023-04-13 17:08:28.045
133.0, 7314.742483465968, 12330.719808425882, -6102.965009565951, -6805.010951162691, 15005.418956925745, 18835.569183298252, 15744.658201296115, -131998.13747383803, -0.17200000000000001, 0.9440000000000001, 0.168, 192.0, 0.0, 0.0, 0.0, 0.0, 0.0, 0.0, 0.0, 0.0, 0.0, 1.6814201080453422E9, 0.0, 2023-04-13 17:08:28.045
134.0, 7432.022086622965, 12484.097478878199, -6101.914477576552, -6804.58626801804, 14987.649320083776, 18836.99969494339, 15708.023692133867, -131973.84112761513, -0.17200000000000001, 0.9440000000000001, 0.168, 192.0, 0.0, 0.0, 0.0, 0.0, 0.0, 0.0, 0.0, 0.0, 0.0, 1.6814201080453613E9, 0.0, 2023-04-13 17:08:28.045
135.0, 7653.170246263772, 12730.927792898154, -6141.4994170069, -6837.4209806228855, 14953.048819666961, 18867.73334356944, 15721.211221362499, -131926.41072588097, -0.17200000000000001, 0.9440000000000001, 0.168, 192.0, 0.0, 0.0, 0.0, 0.0, 0.0, 0.0, 0.0, 0.0, 0.0, 1.68142010804538E9, 0.0, 2023-04-13 17:08:28.045
136.0, 7473.439869098648, 12599.566590734315, -6108.128262535127, -6829.620221807983, 14980.608520580356, 18942.388170050166, 15760.237367181466, -131835.52853292567, -0.17200000000000001, 0.9440000000000001, 0.168, 192.0, 0.0, 0.0, 0.0, 0.0, 0.0, 0.0, 0.0, 0.0, 0.0, 1.6814201080453992E9, 0.0, 2023-04-13 17:08:28.045
137.0, 7269.748421877435, 12437.851719600169, -6054.171151420016, -6797.478413281252, 15032.531622950033, 18966.550405806353, 15787.350033205752, -131798.2011196853, -0.17200000000000001, 0.9440000000000001, 0.168, 192.0, 0.0, 0.0, 0.0, 0.0, 0.0, 0.0, 0.0, 0.0, 0.0, 1.681420108045418E9, 0.0, 2023-04-13 17:08:28.045
138.0, 7316.217698600019, 12553.879625067668, -6067.9398260044845, -6806.352055830009, 15031.63755317182, 18979.402658868155, 15778.990480779468, -131778.3974740979, -0.162, 0.9440000000000001, 0.17, 192.0, 250.0, 240.0, 29.0, 128.0, 5.0, 80.0, 0.0, 0.0, 0.0, 1.6814201080454373E9, 0.0, 2023-04-13 17:08:28.045
139.0, 7545.770114156022, 12817.317285217916, -6117.985381839917, -6845.132332459967, 14986.82230553893, 19025.156679768166, 15722.977009174469, -131729.76007816318, -0.162, 0.9440000000000001, 0.17, 192.0, 0.0, 0.0, 0.0, 0.0, 0.0, 0.0, 0.0, 0.0, 0.0, 1.6814201080454583E9, 0.0, 2023-04-13 17:08:28.045
140.0, 7444.13673211774, 12746.439903550137, -6085.77651807982, -6843.478303370274, 15001.73091909062, 19092.0554509229, 15716.718520726983, -131658.74858602867, -0.162, 0.9440000000000001, 0.17, 192.0, 0.0, 0.0, 0.0, 0.0, 0.0, 0.0, 0.0, 0.0, 0.0, 1.6814201080454772E9, 0.0, 2023-04-13 17:08:28.045
141.0, 7217.892374741123, 12553.879625067668, -6027.237299351371, -6798.216020848277, 15075.379917070857, 19132.892088042747, 15731.671837767582, -131614.93916689625, -0.162, 0.9440000000000001, 0.17, 192.0, 0.0, 0.0, 0.0, 0.0, 0.0, 0.0, 0.0, 0.0, 0.0, 1.6814201080455203E9, 0.0, 2023-04-13 17:08:28.045
142.0, 7238.768904062379, 12609.31195131683, -6041.900043714052, -6785.967264886769, 15100.123298182882, 19156.473178443095, 15720.764186473392, -131588.83232937247, -0.162, 0.9440000000000001, 0.17, 192.0, 0.0, 0.0, 0.0, 0.0, 0.0, 0.0, 0.0, 0.0, 0.0, 1.6814201080455396E9, 0.0, 2023-04-13 17:08:28.045
143.0, 7483.207581425618, 12872.21316960015, -6082.15553547806, -6810.107148898501, 15060.113675607881, 19190.671347459716, 15677.647671419105, -131554.29888418902, -0.162, 0.9440000000000001, 0.17, 192.0, 0.0, 0.0, 0.0, 0.0, 0.0, 0.0, 0.0, 0.0, 0.0, 1.681420108045574E9, 0.0, 2023-04-13 17:08:28.045
144.0, 7494.942247264654, 12891.83800123191, -6069.43739288299, -6808.743692486727, 15066.26040533309, 19262.57690937244, 15675.43484871803, -131480.20285131966, -0.162, 0.9440000000000001, 0.17, 192.0, 0.0, 0.0, 0.0, 0.0, 0.0, 0.0, 0.0, 0.0, 0.0, 1.6814201080455935E9, 0.0, 2023-04-13 17:08:28.045
145.0, 7256.449133926527, 12677.75299283898, -6031.90881394253, -6794.148003357412, 15102.805507517518, 19335.68946548575, 15693.115078582177, -131396.49556833453, -0.162, 0.9440000000000001, 0.17, 192.0, 0.0, 0.0, 0.0, 0.0, 0.0, 0.0, 0.0, 0.0, 0.0, 1.6814201080456123E9, 0.0, 2023-04-13 17:08:28.045
146.0, 7229.805854535802, 12672.299167191884, -6024.488034783368, -6793.723320212761, 15108.728719798175, 19361.25986114262, 15682.185075543533, -131363.1467656072, -0.162, 0.9440000000000001, 0.17, 192.0, 0.0, 0.0, 0.0, 0.0, 0.0, 0.0, 0.0, 0.0, 0.0, 1.6814201080456312E9, 0.0, 2023-04-13 17:08:28.045
147.0, 7457.346613090827, 12924.471548136658, -6056.696898543465, -6817.215003635288, 15077.190408371736, 19385.936187021278, 15637.861566288659, -131336.43643098313, -0.162, 0.9440000000000001, 0.17, 192.0, 0.0, 0.0, 0.0, 0.0, 0.0, 0.0, 0.0, 0.0, 0.0, 1.6814201080456505E9, 0.0, 2023-04-13 17:08:28.045
148.0, 7526.1899860131725, 13004.714310731211, -6054.953462475952, -6819.561936803096, 15066.88625417784, 19442.866080148946, 15600.243580370377, -131275.95261048706, -0.152, 0.9520000000000001, 0.168, 192.0, 251.0, 64.0, 29.0, 192.0, 5.0, 64.0, 0.0, 0.0, 0.0, 1.6814201080456693E9, 0.0, 2023-04-13 17:08:28.045
149.0, 7277.459773714516, 12782.985005734565, -6005.824328163187, -6789.968227144269, 15120.977475759682, 19498.454868609297, 15635.04524648729, -131216.76519116943, -0.152, 0.9520000000000001, 0.168, 192.0, 0.0, 0.0, 0.0, 0.0, 0.0, 0.0, 0.0, 0.0, 0.0, 1.6814201080456896E9, 0.0, 2023-04-13 17:08:28.045
150.0, 7206.671799024559, 12767.33878461585, -5984.56781918619, -6775.685462437327, 15152.560490675032, 19515.19632520632, 15670.33865098222, -131195.93336533706, -0.152, 0.9520000000000001, 0.168, 192.0, 0.0, 0.0, 0.0, 0.0, 0.0, 0.0, 0.0, 0.0, 0.0, 1.6814201080457127E9, 0.0, 2023-04-13 17:08:28.045
151.0, 7416.934659115632, 12979.27802554107, -6022.834005693675, -6814.599849534017, 15124.620810105898, 19538.620953395483, 15645.639973359106, -131171.4582051585, -0.152, 0.9520000000000001, 0.168, 192.0, 0.0, 0.0, 0.0, 0.0, 0.0, 0.0, 0.0, 0.0, 0.0, 1.6814201080457315E9, 0.0, 2023-04-13 17:08:28.045
152.0, 7567.428954533215, 13154.895681726419, -6015.010895134318, -6832.123617186978, 15122.743263571652, 19580.217549826808, 15627.400949883575, -131132.87909422864, -0.152, 0.9520000000000001, 0.168, 192.0, 0.0, 0.0, 0.0, 0.0, 0.0, 0.0, 0.0, 0.0, 0.0, 1.6814201080457556E9, 0.0, 2023-04-13 17:08:28.045
153.0, 7279.493782459949, 12909.674693307245, -5965.993519543829, -6764.777811143138, 15169.927796116806, 19655.297059452183, 15648.1433687381, -131057.53136366981, -0.152, 0.9520000000000001, 0.168, 192.0, 0.0, 0.0, 0.0, 0.0, 0.0, 0.0, 0.0, 0.0, 0.0, 1.681420108045791E9, 0.0, 2023-04-13 17:08:28.045
154.0, 7115.431978157995, 12790.405784893726, -5936.824493029653, -6726.668086846839, 15199.946188920283, 19698.212408806376, 15643.740075080404, -131011.9785084699, -0.152, 0.9520000000000001, 0.168, 192.0, 0.0, 0.0, 0.0, 0.0, 0.0, 0.0, 0.0, 0.0, 0.0, 1.6814201080458252E9, 0.0, 2023-04-13 17:08:28.045
155.0, 7226.207223678497, 12949.7066676267, -5963.445420675925, -6734.468845661741, 15185.52931374661, 19721.078243384152, 15632.385388897108, -130988.50917679182, -0.152, 0.9520000000000001, 0.168, 192.0, 0.0, 0.0, 0.0, 0.0, 0.0, 0.0, 0.0, 0.0, 0.0, 1.681420108045845E9, 0.0, 2023-04-13 17:08:28.045
156.0, 7408.999789833998, 13127.090111624017, -5979.292807494737, -6757.580549428529, 15160.09302855647, 19757.556290335215, 15599.304807103254, -130949.79595539522, -0.152, 0.9520000000000001, 0.168, 192.0, 0.0, 0.0, 0.0, 0.0, 0.0, 0.0, 0.0, 0.0, 0.0, 1.6814201080458927E9, 0.0, 2023-04-13 17:08:28.045
157.0, 7184.3871098026175, 12935.17803373075, -5941.831283787642, -6744.616537644451, 15195.229970840213, 19823.918619623022, 15621.23186841391, -130874.62703879202, -0.152, 0.9520000000000001, 0.168, 192.0, 0.0, 0.0, 0.0, 0.0, 0.0, 0.0, 0.0, 0.0, 0.0, 1.681420108045912E9, 0.0, 2023-04-13 17:08:28.045
158.0, 6987.3341306846305, 12794.607912851325, -5921.155920166483, -6736.324040451532, 15222.834375242517, 19859.502596795868, 15634.195880197989, -130827.1295818245, -0.154, 0.978, 0.182, 192.0, 251.0, 48.0, 30.0, 144.0, 5.0, 176.0, 0.0, 0.0, 0.0, 1.681420108045931E9, 0.0, 2023-04-13 17:08:28.045
159.0, 7062.458343798918, 12910.278190407538, -5925.045123701707, -6739.632098630917, 15218.699302518286, 19868.555053300268, 15625.322237649232, -130808.13059903748, -0.154, 0.978, 0.182, 192.0, 0.0, 0.0, 0.0, 0.0, 0.0, 0.0, 0.0, 0.0, 0.0, 1.6814201080459518E9, 0.0, 2023-04-13 17:08:28.045
160.0, 7272.162410278608, 13148.816007234574, -5943.418257643969, -6747.522264423641, 15193.173610350324, 19886.32469014224, 15609.51955431933, -130777.66517134491, -0.154, 0.978, 0.182, 192.0, 0.0, 0.0, 0.0, 0.0, 0.0, 0.0, 0.0, 0.0, 0.0, 1.681420108045971E9, 0.0, 2023-04-13 17:08:28.045
161.0, 7091.895591246556, 13021.634581283877, -5904.3474083360925, -6724.611726356951, 15222.499099075689, 19930.46938544147, 15626.573935338729, -130711.52635950166, -0.154, 0.978, 0.182, 192.0, 0.0, 0.0, 0.0, 0.0, 0.0, 0.0, 0.0, 0.0, 0.0, 1.68142010804599E9, 0.0, 2023-04-13 17:08:28.045
162.0, 6891.93688534938, 12850.151997822762, -5878.329977790115, -6711.1559761948565, 15256.585509370032, 19948.931926361554, 15644.164758225055, -130669.81800434805, -0.154, 0.978, 0.182, 192.0, 0.0, 0.0, 0.0, 0.0, 0.0, 0.0, 0.0, 0.0, 0.0, 1.6814201080460088E9, 0.0, 2023-04-13 17:08:28.046
163.0, 6950.006717444267, 12926.684370837733, -5907.029617670729, -6725.1258164794235, 15241.58748884052, 19969.51788300489, 15643.404798913574, -130632.69175680778, -0.154, 0.978, 0.182, 192.0, 0.0, 0.0, 0.0, 0.0, 0.0, 0.0, 0.0, 0.0, 0.0, 1.681420108046028E9, 0.0, 2023-04-13 17:08:28.046
164.0, 7195.495926796905, 13155.968565460273, -5947.307461179193, -6749.042183046602, 15196.749889463174, 19992.942511194055, 15592.196952366467, -130600.39348606986, -0.154, 0.978, 0.182, 192.0, 0.0, 0.0, 0.0, 0.0, 0.0, 0.0, 0.0, 0.0, 0.0, 1.6814201080460467E9, 0.0, 2023-04-13 17:08:28.046
165.0, 7093.415509869517, 13066.695698105777, -5926.922670235953, -6734.290031706099, 15214.67598851633, 20038.294200693872, 15582.585702250684, -130543.01655805309, -0.154, 0.978, 0.182, 192.0, 0.0, 0.0, 0.0, 0.0, 0.0, 0.0, 0.0, 0.0, 0.0, 1.6814201080460656E9, 0.0, 2023-04-13 17:08:28.046
166.0, 6845.713477815804, 12844.698172175667, -5899.094748389095, -6720.923688521825, 15250.68464883383, 20075.420448234137, 15607.686711273995, -130485.32670561394, -0.154, 0.978, 0.182, 192.0, 0.0, 0.0, 0.0, 0.0, 0.0, 0.0, 0.0, 0.0, 0.0, 1.681420108046085E9, 0.0, 2023-04-13 17:08:28.046
167.0, 6849.133294717467, 12881.064460404452, -5894.6914547314, -6710.932458750303, 15258.150131481903, 20068.424352219627, 15603.618693783128, -130475.2460688646, -0.154, 0.978, 0.182, 192.0, 0.0, 0.0, 0.0, 0.0, 0.0, 0.0, 0.0, 0.0, 0.0, 1.681420108046104E9, 0.0, 2023-04-13 17:08:28.046
168.0, 7097.304713404741, 13119.98225688723, -5958.170408984472, -6754.138380782411, 15202.986026166205, 20095.15703858817, 15570.56046373373, -130431.03431833201, -0.148, 0.99, 0.18, 192.0, 251.0, 96.0, 30.0, 240.0, 5.0, 160.0, 0.0, 0.0, 0.0, 1.6814201080461233E9, 0.0, 2023-04-13 17:08:28.046
169.0, 7090.465079601417, 13098.055195576573, -5930.4095423709805, -6749.422162702342, 15221.068587430549, 20132.953838462097, 15599.550676292263, -130376.63017232779, -0.148, 0.99, 0.18, 192.0, 0.0, 0.0, 0.0, 0.0, 0.0, 0.0, 0.0, 0.0, 0.0, 1.6814201080461433E9, 0.0, 2023-04-13 17:08:28.046
170.0, 6840.192596935344, 12864.859445674354, -5876.385376022503, -6708.250249415666, 15279.943082325826, 20165.65444060021, 15650.155025739077, -130324.17062809117, -0.148, 0.99, 0.18, 192.0, 0.0, 0.0, 0.0, 0.0, 0.0, 0.0, 0.0, 0.0, 0.0, 1.6814201080461628E9, 0.0, 2023-04-13 17:08:28.046
171.0, 6803.446329050819, 12840.026657584509, -5903.296876346693, -6724.119987978935, 15265.034468774138, 20178.461990173102, 15633.346513908687, -130289.68188639665, -0.148, 0.99, 0.18, 192.0, 0.0, 0.0, 0.0, 0.0, 0.0, 0.0, 0.0, 0.0, 0.0, 1.6814201080461857E9, 0.0, 2023-04-13 17:08:28.046
172.0, 7008.188308261431, 13054.692811333278, -5944.98287975584, -6747.768133612649, 15214.25130537168, 20186.84389434384, 15579.881141171592, -130265.07261575134, -0.148, 0.99, 0.18, 192.0, 0.0, 0.0, 0.0, 0.0, 0.0, 0.0, 0.0, 0.0, 0.0, 1.6814201080462253E9, 0.0, 2023-04-13 17:08:28.046
173.0, 7075.0200241828, 13134.510890783178, -5954.571778127168, -6751.702040636783, 15192.05602312756, 20228.351083797348, 15547.493463455852, -130208.52270227943, -0.148, 0.99, 0.18, 192.0, 0.0, 0.0, 0.0, 0.0, 0.0, 0.0, 0.0, 0.0, 0.0, 1.6814201080462446E9, 0.0, 2023-04-13 17:08:28.046
174.0, 6807.290829097132, 12891.793297743, -5926.788559769221, -6743.655412632873, 15217.53701180661, 20284.54336935799, 15578.540036504273, -130128.63756759616, -0.148, 0.99, 0.18, 192.0, 0.0, 0.0, 0.0, 0.0, 0.0, 0.0, 0.0, 0.0, 0.0, 1.6814201080462637E9, 0.0, 2023-04-13 17:08:28.046
175.0, 6731.361953182453, 12818.63603814078, -5925.5368620797235, -6755.85946510547, 15213.58075303802, 20295.875703796828, 15575.41079228053, -130096.00402069141, -0.148, 0.99, 0.18, 192.0, 0.0, 0.0, 0.0, 0.0, 0.0, 0.0, 0.0, 0.0, 0.0, 1.6814201080462828E9, 0.0, 2023-04-13 17:08:28.046
176.0, 6918.222536828821, 13000.556886262524, -5930.387190626525, -6742.493121921197, 15202.494287788188, 20282.889340268295, 15544.587736676664, -130096.11577941368, -0.148, 0.99, 0.18, 192.0, 0.0, 0.0, 0.0, 0.0, 0.0, 0.0, 0.0, 0.0, 0.0, 1.681420108046302E9, 0.0, 2023-04-13 17:08:28.046
177.0, 7050.656622726515, 13117.83648941952, -5956.851656061609, -6739.810912586559, 15175.67219444182, 20318.875648841342, 15515.21754446239, -130046.36079625617, -0.148, 0.99, 0.18, 192.0, 0.0, 0.0, 0.0, 0.0, 0.0, 0.0, 0.0, 0.0, 0.0, 1.681420108046321E9, 0.0, 2023-04-13 17:08:28.046
178.0, 6794.617389990973, 12883.187876127706, -5911.902297961986, -6716.721560564228, 15216.642942028397, 20369.54705352152, 15534.30593422722, -129973.71762677642, -0.148, 0.994, 0.18, 192.0, 251.0, 96.0, 31.0, 16.0, 5.0, 160.0, 0.0, 0.0, 0.0, 1.68142010804634E9, 0.0, 2023-04-13 17:08:28.046
179.0, 6675.214371110723, 12785.041366224452, -5893.909143675464, -6700.315380134032, 15238.72646555024, 20376.94548093623, 15543.02311456479, -129941.79933569425, -0.148, 0.994, 0.18, 192.0, 0.0, 0.0, 0.0, 0.0, 0.0, 0.0, 0.0, 0.0, 0.0, 1.6814201080463605E9, 0.0, 2023-04-13 17:08:28.046
180.0, 6829.5531665746175, 12935.692123853223, -5929.2919551482155, -6719.224955943222, 15210.898543703384, 20381.594643782933, 15517.720939841383, -129914.39609699203, -0.148, 0.994, 0.18, 192.0, 0.0, 0.0, 0.0, 0.0, 0.0, 0.0, 0.0, 0.0, 0.0, 1.6814201080464E9, 0.0, 2023-04-13 17:08:28.046
181.0, 7028.886023627046, 13111.73446318322, -5960.427935174458, -6752.90903483737, 15169.748982161163, 20411.210705186215, 15473.129209653045, -129864.46229987888, -0.148, 0.994, 0.18, 192.0, 0.0, 0.0, 0.0, 0.0, 0.0, 0.0, 0.0, 0.0, 0.0, 1.6814201080464191E9, 0.0, 2023-04-13 17:08:28.046
182.0, 6819.58428854755, 12909.07119620695, -5916.93144046443, -6730.579642126518, 15210.786784981106, 20453.85783360694, 15505.695701324428, -129799.06109560265, -0.148, 0.994, 0.18, 192.0, 0.0, 0.0, 0.0, 0.0, 0.0, 0.0, 0.0, 0.0, 0.0, 1.6814201080464385E9, 0.0, 2023-04-13 17:08:28.046
183.0, 6653.1084958444235, 12752.8101507199, -5906.716693248355, -6726.981011269214, 15231.886831746917, 20469.81697914803, 15520.336093942655, -129754.96110379233, -0.148, 0.994, 0.18, 192.0, 0.0, 0.0, 0.0, 0.0, 0.0, 0.0, 0.0, 0.0, 0.0, 1.6814201080464575E9, 0.0, 2023-04-13 17:08:28.046
184.0, 6754.33954648251, 12859.249157816072, -5923.681667289933, -6740.257947475666, 15216.397072839389, 20468.878205880905, 15487.2555121488, -129729.94950174684, -0.148, 0.994, 0.18, 192.0, 0.0, 0.0, 0.0, 0.0, 0.0, 0.0, 0.0, 0.0, 0.0, 1.681420108046477E9, 0.0, 2023-04-13 17:08:28.046
185.0, 6983.266113193765, 13087.818096616042, -5958.3492229401145, -6777.473601993752, 15178.086182842993, 20482.177493831816, 15437.47817724683, -129694.05260015163, -0.148, 0.994, 0.18, 192.0, 0.0, 0.0, 0.0, 0.0, 0.0, 0.0, 0.0, 0.0, 0.0, 1.681420108046496E9, 0.0, 2023-04-13 17:08:28.046
186.0, 6820.813634492592, 12953.886443839841, -5920.1947951549055, -6751.702040636783, 15206.517601790143, 20523.796442007595, 15451.336258809122, -129627.08677376351, -0.148, 0.994, 0.18, 192.0, 0.0, 0.0, 0.0, 0.0, 0.0, 0.0, 0.0, 0.0, 0.0, 1.6814201080465152E9, 0.0, 2023-04-13 17:08:28.046
187.0, 6637.037591581058, 12777.799401020933, -5879.604027224068, -6722.868290289437, 15249.857634288985, 20542.907183516883, 15492.35170988461, -129578.58348829551, -0.148, 0.994, 0.18, 192.0, 0.0, 0.0, 0.0, 0.0, 0.0, 0.0, 0.0, 0.0, 0.0, 1.681420108046556E9, 0.0, 2023-04-13 17:08:28.046
188.0, 6713.525261107119, 12844.54170996448, -5884.811983682154, -6716.6768570753175, 15245.052009231093, 20527.238610653712, 15482.069907435169, -129567.49702304567, -0.152, 0.994, 0.18, 192.0, 251.0, 64.0, 31.0, 16.0, 5.0, 160.0, 0.0, 0.0, 0.0, 1.6814201080465753E9, 0.0, 2023-04-13 17:08:28.046
189.0, 6966.278787407731, 13078.296253478082, -5918.384303854025, -6745.734124867216, 15204.707110489264, 20529.2949711436, 15436.76292142426, -129543.87122915642, -0.152, 0.994, 0.18, 192.0, 0.0, 0.0, 0.0, 0.0, 0.0, 0.0, 0.0, 0.0, 0.0, 1.6814201080465956E9, 0.0, 2023-04-13 17:08:28.046
190.0, 6885.030196312689, 13005.29545608705, -5903.78861472471, -6743.051915532579, 15211.792613481595, 20577.21711125578, 15455.650145488997, -129470.24458292063, -0.152, 0.994, 0.18, 192.0, 0.0, 0.0, 0.0, 0.0, 0.0, 0.0, 0.0, 0.0, 0.0, 1.6814201080466144E9, 0.0, 2023-04-13 17:08:28.046
191.0, 6663.010318638125, 12796.686625085667, -5878.397033023481, -6735.161749739856, 15244.202642941791, 20612.666977961897, 15490.518866839275, -129403.3458117659, -0.152, 0.994, 0.18, 192.0, 0.0, 0.0, 0.0, 0.0, 0.0, 0.0, 0.0, 0.0, 0.0, 1.6814201080466335E9, 0.0, 2023-04-13 17:08:28.046
192.0, 6680.064699657524, 12829.29782024596, -5919.010152698774, -6773.137363569423, 15213.446642571289, 20629.14021362546, 15463.048572903703, -129355.55778212045, -0.152, 0.994, 0.18, 192.0, 0.0, 0.0, 0.0, 0.0, 0.0, 0.0, 0.0, 0.0, 0.0, 1.681420108046656E9, 0.0, 2023-04-13 17:08:28.046
193.0, 6921.865871175036, 13060.39250616938, -5946.100466978606, -6809.056616909101, 15177.549740976065, 20647.51334756772, 15425.564697452153, -129313.268281611, -0.152, 0.994, 0.18, 192.0, 0.0, 0.0, 0.0, 0.0, 0.0, 0.0, 0.0, 0.0, 0.0, 1.6814201080466752E9, 0.0, 2023-04-13 17:08:28.046
194.0, 6919.183661840399, 13048.859006030441, -5928.50964409228, -6794.036244635135, 15184.277616057112, 20683.365545674034, 15425.899973618982, -129252.3597779703, -0.152, 0.994, 0.18, 192.0, 0.0, 0.0, 0.0, 0.0, 0.0, 0.0, 0.0, 0.0, 0.0, 1.6814201080466945E9, 0.0, 2023-04-13 17:08:28.046
195.0, 6656.327147045988, 12812.690474115667, -5885.2143150823495, -6768.488200722719, 15228.288200889612, 20710.858191354062, 15450.218671586355, -129192.50180631898, -0.152, 0.994, 0.18, 192.0, 0.0, 0.0, 0.0, 0.0, 0.0, 0.0, 0.0, 0.0, 0.0, 1.6814201080467184E9, 0.0, 2023-04-13 17:08:28.046
196.0, 6609.634352878851, 12805.694378101156, -5876.832410911609, -6747.589319657007, 15231.708017791274, 20701.850438338573, 15440.227441814834, -129173.50282353198, -0.152, 0.994, 0.18, 192.0, 0.0, 0.0, 0.0, 0.0, 0.0, 0.0, 0.0, 0.0, 0.0, 1.6814201080467377E9, 0.0, 2023-04-13 17:08:28.046
197.0, 6815.985657690247, 13001.182735107272, -5906.984914181819, -6745.845883589493, 15195.945226662783, 20687.09828699807, 15403.57058090813, -129165.56795425033, -0.152, 0.994, 0.18, 192.0, 0.0, 0.0, 0.0, 0.0, 0.0, 0.0, 0.0, 0.0, 0.0, 1.6814201080467565E9, 0.0, 2023-04-13 17:08:28.046
198.0, 6901.861059887536, 13062.493570148179, -5928.3531818810925, -6769.046994334101, 15166.105647814948, 20733.031121853724, 15377.37433640651, -129093.39417140416, -0.152, 0.972, 0.18, 192.0, 251.0, 64.0, 30.0, 96.0, 5.0, 160.0, 0.0, 0.0, 0.0, 1.6814201080467756E9, 0.0, 2023-04-13 17:08:28.046
199.0, 6638.1998822927335, 12823.173442265206, -5871.177419564417, -6741.308479465066, 15213.983084438216, 20769.643279271517, 15410.611380411552, -129023.74613568142, -0.152, 0.972, 0.18, 192.0, 0.0, 0.0, 0.0, 0.0, 0.0, 0.0, 0.0, 0.0, 0.0, 1.681420108046796E9, 0.0, 2023-04-13 17:08:28.046
200.0, 6561.019308688558, 12758.33103160036, -5877.1676870784395, -6748.215168501755, 15214.452471071778, 20778.673384031463, 15409.270275744233, -128981.07665551624, -0.152, 0.972, 0.18, 192.0, 0.0, 0.0, 0.0, 0.0, 0.0, 0.0, 0.0, 0.0, 0.0, 1.681420108046815E9, 0.0, 2023-04-13 17:08:28.046
201.0, 6743.990688799702, 12920.090606223417, -5902.201640868383, -6773.383232758431, 15182.489476500688, 20767.96689843737, 15373.641595082474, -128962.79292855179, -0.152, 0.972, 0.18, 192.0, 0.0, 0.0, 0.0, 0.0, 0.0, 0.0, 0.0, 0.0, 0.0, 1.681420108046834E9, 0.0, 2023-04-13 17:08:28.046
202.0, 6891.087519060078, 13068.126209750917, -5903.609800769067, -6780.826363662049, 15172.945281618273, 20773.30896536219, 15358.3753536195, -128931.65694852555, -0.152, 0.972, 0.18, 192.0, 0.0, 0.0, 0.0, 0.0, 0.0, 0.0, 0.0, 0.0, 0.0, 1.6814201080468528E9, 0.0, 2023-04-13 17:08:28.046
203.0, 6654.874283656393, 12858.466846760137, -5862.840218882588, -6752.57375867054, 15216.128851905925, 20812.5139251368, 15404.576409408619, -128863.81940410369, -0.152, 0.972, 0.18, 192.0, 0.0, 0.0, 0.0, 0.0, 0.0, 0.0, 0.0, 0.0, 0.0, 1.6814201080468905E9, 0.0, 2023-04-13 17:08:28.046
204.0, 6545.797770714495, 12741.634278492247, -5825.91513704242, -6722.622421100428, 15257.099599492503, 20799.236988930345, 15421.228459027823, -128851.414185931, -0.152, 0.972, 0.18, 192.0, 0.0, 0.0, 0.0, 0.0, 0.0, 0.0, 0.0, 0.0, 0.0, 1.6814201080469096E9, 0.0, 2023-04-13 17:08:28.046
205.0, 6690.502964318152, 12875.07419289043, -5853.944224589375, -6738.559214897063, 15235.485462604222, 20791.54798883772, 15395.211028481846, -128834.53861886724, -0.152, 0.972, 0.18, 192.0, 0.0, 0.0, 0.0, 0.0, 0.0, 0.0, 0.0, 0.0, 0.0, 1.681420108046929E9, 0.0, 2023-04-13 17:08:28.046
206.0, 6894.842612128569, 13068.997927784674, -5905.375588581037, -6775.529000226141, 15185.52931374661, 20820.515849651798, 15344.964306946315, -128781.18500485242, -0.152, 0.972, 0.18, 192.0, 0.0, 0.0, 0.0, 0.0, 0.0, 0.0, 0.0, 0.0, 0.0, 1.6814201080469477E9, 0.0, 2023-04-13 17:08:28.046
207.0, 6684.311531104033, 12883.657262761268, -5866.505904973257, -6763.414354731364, 15215.525354805632, 20876.104638112145, 15367.696031057363, -128698.14827420095, -0.152, 0.972, 0.18, 192.0, 0.0, 0.0, 0.0, 0.0, 0.0, 0.0, 0.0, 0.0, 0.0, 1.6814201080469663E9, 0.0, 2023-04-13 17:08:28.046
208.0, 6542.556767768475, 12740.583746502847, -5840.15319826045, -6740.034430031113, 15248.471826132754, 20888.196931862465, 15395.747470348773, -128656.90930568092, -0.152, 0.968, 0.178, 192.0, 251.0, 64.0, 30.0, 64.0, 5.0, 144.0, 0.0, 0.0, 0.0, 1.6814201080469856E9, 0.0, 2023-04-13 17:08:28.046
209.0, 6663.2561878271335, 12851.671916445723, -5867.243512540283, -6760.508627952174, 15230.903354990884, 20886.09586788367, 15380.637691096985, -128629.08138383405, -0.152, 0.968, 0.178, 192.0, 0.0, 0.0, 0.0, 0.0, 0.0, 0.0, 0.0, 0.0, 0.0, 1.681420108047006E9, 0.0, 2023-04-13 17:08:28.047
210.0, 6890.036987070678, 13086.298177993081, -5891.808079696665, -6793.119823112467, 15200.840258698496, 20893.71781274293, 15354.79907450665, -128595.08438051754, -0.152, 0.968, 0.178, 192.0, 0.0, 0.0, 0.0, 0.0, 0.0, 0.0, 0.0, 0.0, 0.0, 1.6814201080470247E9, 0.0, 2023-04-13 17:08:28.047
211.0, 6731.071380504534, 12930.12653948385, -5870.6856811864, -6777.987692116224, 15225.181308410325, 20935.962609763457, 15370.199426436357, -128524.00583314965, -0.152, 0.968, 0.178, 192.0, 0.0, 0.0, 0.0, 0.0, 0.0, 0.0, 0.0, 0.0, 0.0, 1.6814201080470438E9, 0.0, 2023-04-13 17:08:28.047
212.0, 6519.9815058686145, 12733.47589176606, -5849.675041398411, -6773.897322880903, 15237.251250416191, 20973.87116835966, 15361.75046703225, -128451.02738750308, -0.152, 0.968, 0.178, 192.0, 0.0, 0.0, 0.0, 0.0, 0.0, 0.0, 0.0, 0.0, 0.0, 1.6814201080470629E9, 0.0, 2023-04-13 17:08:28.047
213.0, 6569.512971581576, 12790.361081404815, -5843.34949771756, -6751.277357492132, 15234.122006192447, 20949.060732014266, 15351.17809190489, -128447.96519851271, -0.152, 0.968, 0.178, 192.0, 0.0, 0.0, 0.0, 0.0, 0.0, 0.0, 0.0, 0.0, 0.0, 1.6814201080470817E9, 0.0, 2023-04-13 17:08:28.047
214.0, 6819.696047269827, 13026.44020634177, -5882.420347025436, -6773.807915903082, 15190.670214971331, 20950.535947148317, 15315.996446132238, -128420.24903538813, -0.152, 0.968, 0.178, 192.0, 0.0, 0.0, 0.0, 0.0, 0.0, 0.0, 0.0, 0.0, 0.0, 1.6814201080471034E9, 0.0, 2023-04-13 17:08:28.047
215.0, 6750.204473758277, 12962.268348010582, -5850.591462921079, -6754.451305204786, 15212.91020070436, 20976.240453271923, 15333.60962076302, -128365.7554824061, -0.152, 0.968, 0.178, 192.0, 0.0, 0.0, 0.0, 0.0, 0.0, 0.0, 0.0, 0.0, 0.0, 1.6814201080471227E9, 0.0, 2023-04-13 17:08:28.047
216.0, 6525.994125127092, 12740.13671161374, -5831.525424900702, -6750.204473758277, 15240.425198128843, 21007.35408155371, 15359.202368164346, -128299.72842928511, -0.152, 0.968, 0.178, 192.0, 0.0, 0.0, 0.0, 0.0, 0.0, 0.0, 0.0, 0.0, 0.0, 1.6814201080471416E9, 0.0, 2023-04-13 17:08:28.047
217.0, 6543.652003246785, 12754.978269932064, -5844.44473319587, -6759.748668640694, 15225.96361946626, 21011.511506022394, 15343.89142321246, -128261.95398115565, -0.152, 0.968, 0.178, 192.0, 0.0, 0.0, 0.0, 0.0, 0.0, 0.0, 0.0, 0.0, 0.0, 1.6814201080471635E9, 0.0, 2023-04-13 17:08:28.047
218.0, 6787.53188699864, 12989.582179734967, -5870.395108508481, -6772.980901358235, 15185.4846102577, 20997.72047969347, 15286.447439962321, -128250.0181496165, -0.14, 0.964, 0.182, 192.0, 251.0, 160.0, 30.0, 32.0, 5.0, 176.0, 0.0, 0.0, 0.0, 1.6814201080472128E9, 0.0, 2023-04-13 17:08:28.047
219.0, 6800.272381338165, 12992.6667204698, -5867.243512540283, -6772.735032169227, 15190.379642293412, 21019.602837515216, 15282.290015493634, -128201.26899495948, -0.14, 0.964, 0.182, 192.0, 0.0, 0.0, 0.0, 0.0, 0.0, 0.0, 0.0, 0.0, 0.0, 1.6814201080472333E9, 0.0, 2023-04-13 17:08:28.047
220.0, 6556.884235964327, 12751.469046052582, -5845.562320418635, -6761.827380875037, 15221.605029297476, 21056.21499493301, 15318.522193255687, -128130.90570341417, -0.14, 0.964, 0.182, 192.0, 0.0, 0.0, 0.0, 0.0, 0.0, 0.0, 0.0, 0.0, 0.0, 1.6814201080472524E9, 0.0, 2023-04-13 17:08:28.047
221.0, 6540.925090423238, 12728.826728919355, -5834.185282490884, -6754.563063927062, 15232.669142802853, 21049.151843685133, 15324.333646814066, -128107.99516534749, -0.14, 0.964, 0.182, 192.0, 0.0, 0.0, 0.0, 0.0, 0.0, 0.0, 0.0, 0.0, 0.0, 1.6814201080472715E9, 0.0, 2023-04-13 17:08:28.047
222.0, 6772.62327344695, 12944.56576640198, -5860.716803159333, -6771.215113546266, 15206.316436090046, 21032.45509057702, 15306.02756810517, -128098.67448790962, -0.14, 0.964, 0.182, 192.0, 0.0, 0.0, 0.0, 0.0, 0.0, 0.0, 0.0, 0.0, 0.0, 1.6814201080472903E9, 0.0, 2023-04-13 17:08:28.047
223.0, 6868.534608904673, 13024.205031896237, -5866.64001543999, -6776.512476982174, 15197.576904008021, 21046.2684686504, 15281.127724781958, -128057.99431300096, -0.14, 0.964, 0.182, 192.0, 0.0, 0.0, 0.0, 0.0, 0.0, 0.0, 0.0, 0.0, 0.0, 1.6814201080473092E9, 0.0, 2023-04-13 17:08:28.047
224.0, 6624.677076897273, 12784.661386568712, -5834.453503424347, -6756.932348839325, 15234.814910270563, 21085.428724936097, 15310.07323385158, -127986.46873074397, -0.14, 0.964, 0.182, 192.0, 0.0, 0.0, 0.0, 0.0, 0.0, 0.0, 0.0, 0.0, 0.0, 1.6814201080473285E9, 0.0, 2023-04-13 17:08:28.047
225.0, 6556.459552819676, 12713.918115367665, -5830.944279544864, -6768.354090255987, 15238.502948105688, 21086.814533092325, 15297.198629045324, -127950.86240182667, -0.14, 0.964, 0.182, 192.0, 0.0, 0.0, 0.0, 0.0, 0.0, 0.0, 0.0, 0.0, 0.0, 1.6814201080473473E9, 0.0, 2023-04-13 17:08:28.047
226.0, 6763.347299497998, 12910.814632274465, -5863.778992149711, -6804.541564529129, 15211.77026173714, 21084.60171039125, 15284.16756202788, -127924.1967706915, -0.14, 0.964, 0.182, 192.0, 0.0, 0.0, 0.0, 0.0, 0.0, 0.0, 0.0, 0.0, 0.0, 1.6814201080473664E9, 0.0, 2023-04-13 17:08:28.047
227.0, 6951.392525600497, 13078.385660455902, -5895.920800676442, -6841.131370202466, 15168.653746682854, 21122.152641076165, 15250.058799989081, -127857.05213034776, -0.14, 0.964, 0.182, 192.0, 0.0, 0.0, 0.0, 0.0, 0.0, 0.0, 0.0, 0.0, 0.0, 1.6814201080473852E9, 0.0, 2023-04-13 17:08:28.047
228.0, 6720.342543165987, 12867.407544542259, -5824.059942252629, -6775.126668825945, 15235.574869582042, 21158.071894415843, 15286.201570773314, -127790.89096676004, -0.134, 0.98, 0.18, 192.0, 251.0, 208.0, 30.0, 160.0, 5.0, 160.0, 0.0, 0.0, 0.0, 1.6814201080474043E9, 0.0, 2023-04-13 17:08:28.047
229.0, 6548.9717184271485, 12737.320391812373, -5796.679055294879, -6743.43189518832, 15266.532035652643, 21153.579193780326, 15300.149059313424, -127767.08635891514, -0.134, 0.98, 0.18, 192.0, 0.0, 0.0, 0.0, 0.0, 0.0, 0.0, 0.0, 0.0, 0.0, 1.6814201080474243E9, 0.0, 2023-04-13 17:08:28.047
230.0, 6648.034649853069, 12871.207341099662, -5810.648895579445, -6741.107313764967, 15253.612727357475, 21132.859126670257, 15290.73897489774, -127761.61018152359, -0.134, 0.98, 0.18, 192.0, 0.0, 0.0, 0.0, 0.0, 0.0, 0.0, 0.0, 0.0, 0.0, 1.6814201080474432E9, 0.0, 2023-04-13 17:08:28.047
231.0, 6816.142119901433, 13073.937663309296, -5845.450561696358, -6775.014910103669, 15215.927686205827, 21139.117615117742, 15249.835282544529, -127727.27790204024, -0.134, 0.98, 0.18, 192.0, 0.0, 0.0, 0.0, 0.0, 0.0, 0.0, 0.0, 0.0, 0.0, 1.6814201080474622E9, 0.0, 2023-04-13 17:08:28.047
232.0, 6577.514896096575, 12880.863294704353, -5825.110474242029, -6771.528037968641, 15228.198793911792, 21181.67533656065, 15244.91789876436, -127649.15855516893, -0.134, 0.98, 0.18, 192.0, 0.0, 0.0, 0.0, 0.0, 0.0, 0.0, 0.0, 0.0, 0.0, 1.6814201080474813E9, 0.0, 2023-04-13 17:08:28.047
233.0, 6386.541591470432, 12719.461347992581, -5797.684883795368, -6760.709793652272, 15256.585509370032, 21190.034888986935, 15262.665183861875, -127602.80103716864, -0.134, 0.98, 0.18, 192.0, 0.0, 0.0, 0.0, 0.0, 0.0, 0.0, 0.0, 0.0, 0.0, 1.6814201080475E9, 0.0, 2023-04-13 17:08:28.047
234.0, 6470.0253570110035, 12821.497061431059, -5790.174697658384, -6754.875988349437, 15261.189968727824, 21158.340115349307, 15262.285204206135, -127603.56099648011, -0.134, 0.98, 0.18, 192.0, 0.0, 0.0, 0.0, 0.0, 0.0, 0.0, 0.0, 0.0, 0.0, 1.681420108047536E9, 0.0, 2023-04-13 17:08:28.047
235.0, 6700.3600836229425, 13051.317697920525, -5839.1920732488725, -6788.738881199227, 15209.825659969529, 21169.314821876862, 15224.913087476862, -127563.86429832749, -0.134, 0.98, 0.18, 192.0, 0.0, 0.0, 0.0, 0.0, 0.0, 0.0, 0.0, 0.0, 0.0, 1.681420108047558E9, 0.0, 2023-04-13 17:08:28.047
236.0, 6530.7773984405285, 12922.79516730251, -5806.223250177294, -6780.4240322618525, 15226.365950866457, 21203.267121704474, 15224.220183398747, -127498.75366672919, -0.134, 0.98, 0.18, 192.0, 0.0, 0.0, 0.0, 0.0, 0.0, 0.0, 0.0, 0.0, 0.0, 1.681420108047577E9, 0.0, 2023-04-13 17:08:28.047
237.0, 6300.9120584621505, 12728.111473096786, -5764.872522934977, -6759.435744218319, 15264.766247840673, 21206.463421161585, 15235.708980048774, -127461.91799186684, -0.134, 0.98, 0.18, 192.0, 0.0, 0.0, 0.0, 0.0, 0.0, 0.0, 0.0, 0.0, 0.0, 1.6814201080475957E9, 0.0, 2023-04-13 17:08:28.047
238.0, 6338.798265313896, 12779.140505688252, -5793.259238393216, -6781.765136929172, 15240.291087662112, 21192.024194243455, 15210.719729747741, -127444.19305851377, -0.138, 0.982, 0.18, 192.0, 251.0, 176.0, 30.0, 176.0, 5.0, 160.0, 0.0, 0.0, 0.0, 1.6814201080476148E9, 0.0, 2023-04-13 17:08:28.047
239.0, 6596.268009694578, 13025.456729585736, -5828.86556731052, -6809.838927965036, 15190.759621949152, 21193.611168099782, 15180.410764266344, -127411.58186335348, -0.138, 0.982, 0.18, 192.0, 0.0, 0.0, 0.0, 0.0, 0.0, 0.0, 0.0, 0.0, 0.0, 1.6814201080476346E9, 0.0, 2023-04-13 17:08:28.047
240.0, 6510.90669761976, 12972.147819059828, -5794.645046549445, -6785.564933486573, 15209.19981112478, 21212.990130542534, 15206.919933190338, -127363.10092962992, -0.138, 0.982, 0.18, 192.0, 0.0, 0.0, 0.0, 0.0, 0.0, 0.0, 0.0, 0.0, 0.0, 1.6814201080476537E9, 0.0, 2023-04-13 17:08:28.047
241.0, 6256.9461771185615, 12744.718819227079, -5765.878351435465, -6763.883741364925, 15235.172538181847, 21242.002694845523, 15233.853785258983, -127300.2478242216, -0.138, 0.982, 0.18, 192.0, 0.0, 0.0, 0.0, 0.0, 0.0, 0.0, 0.0, 0.0, 0.0, 1.681420108524628E9, 0.0, 2023-04-13 17:08:28.524
242.0, 6257.750839918953, 12741.90249942571, -5770.639273004445, -6767.012985588669, 15226.969447966749, 21236.079482564866, 15215.793575739095, -127271.68229480772, -0.138, 0.982, 0.18, 192.0, 0.0, 0.0, 0.0, 0.0, 0.0, 0.0, 0.0, 0.0, 0.0, 1.6814201085247195E9, 0.0, 2023-04-13 17:08:28.524
243.0, 6495.774566623517, 12968.929167858263, -5794.2874186381605, -6790.370558544464, 15194.67117722883, 21223.67426439217, 15167.402048993355, -127253.30916086545, -0.138, 0.982, 0.18, 192.0, 0.0, 0.0, 0.0, 0.0, 0.0, 0.0, 0.0, 0.0, 0.0, 1.6814201085248082E9, 0.0, 2023-04-13 17:08:28.524
244.0, 6494.053482300459, 12973.243054538138, -5795.181488416372, -6794.349169057509, 15182.95886313425, 21246.182471058666, 15140.065865524515, -127201.4754654736, -0.138, 0.982, 0.18, 192.0, 0.0, 0.0, 0.0, 0.0, 0.0, 0.0, 0.0, 0.0, 0.0, 1.6814201085248375E9, 0.0, 2023-04-13 17:08:28.524
245.0, 6230.61582215021, 12727.932659141143, -5744.621842458469, -6761.1121250524675, 15232.736198036218, 21259.749979943037, 15178.890845643384, -127153.6650840837, -0.138, 0.982, 0.18, 192.0, 0.0, 0.0, 0.0, 0.0, 0.0, 0.0, 0.0, 0.0, 0.0, 1.6814201085248575E9, 0.0, 2023-04-13 17:08:28.524
246.0, 6195.367121144191, 12696.863734348266, -5761.050374633119, -6772.019776346658, 15231.708017791274, 21259.258241565018, 15182.24360731168, -127117.47760981055, -0.138, 0.982, 0.18, 192.0, 0.0, 0.0, 0.0, 0.0, 0.0, 0.0, 0.0, 0.0, 0.0, 1.681420108524877E9, 0.0, 2023-04-13 17:08:28.524
247.0, 6416.850556951828, 12909.78645202952, -5813.286401425172, -6821.1042071705115, 15180.321357288523, 21267.193110846652, 15135.103778255438, -127074.83048138983, -0.138, 0.982, 0.18, 192.0, 0.0, 0.0, 0.0, 0.0, 0.0, 0.0, 0.0, 0.0, 0.0, 1.6814201085248964E9, 0.0, 2023-04-13 17:08:28.524
248.0, 6527.737561194606, 13013.923229446797, -5815.1862997038725, -6828.055599696112, 15169.838389138984, 21294.216369893118, 15116.395368146344, -127015.03956497188, -0.14200000000000002, 0.978, 0.182, 192.0, 251.0, 144.0, 30.0, 144.0, 5.0, 176.0, 0.0, 0.0, 0.0, 1.6814201085249152E9, 0.0, 2023-04-13 17:08:28.524
249.0, 6290.630256012709, 12797.15601171923, -5770.371052070982, -6785.833154420037, 15212.4408140708, 21331.409672666752, 15130.991057275662, -126939.80359313532, -0.14200000000000002, 0.978, 0.182, 192.0, 0.0, 0.0, 0.0, 0.0, 0.0, 0.0, 0.0, 0.0, 0.0, 1.6814201085250604E9, 0.0, 2023-04-13 17:08:28.525
250.0, 6188.952170485517, 12731.151310342708, -5752.534359995647, -6769.717546667761, 15234.926668992839, 21326.089957486387, 15143.060999281526, -126905.8512933077, -0.14200000000000002, 0.978, 0.182, 192.0, 0.0, 0.0, 0.0, 0.0, 0.0, 0.0, 0.0, 0.0, 0.0, 1.6814201085250816E9, 0.0, 2023-04-13 17:08:28.525
251.0, 6335.9595937680715, 12866.491123019592, -5766.861828191499, -6782.3015787960985, 15206.763470979151, 21309.393204378273, 15112.886144266862, -126887.92519425455, -0.14200000000000002, 0.978, 0.182, 192.0, 0.0, 0.0, 0.0, 0.0, 0.0, 0.0, 0.0, 0.0, 0.0, 1.6814201085251007E9, 0.0, 2023-04-13 17:08:28.525
252.0, 6490.901886332261, 13000.556886262524, -5786.3078458676155, -6791.912828911881, 15181.595406722476, 21314.44469862517, 15095.787059758552, -126851.26833334785, -0.14200000000000002, 0.978, 0.182, 192.0, 0.0, 0.0, 0.0, 0.0, 0.0, 0.0, 0.0, 0.0, 0.0, 1.68142010852512E9, 0.0, 2023-04-13 17:08:28.525
253.0, 6240.227072265991, 12777.844104509844, -5764.984281657253, -6778.568837472062, 15204.416537811345, 21367.351277750884, 15115.65776057932, -126758.37448339158, -0.14200000000000002, 0.978, 0.182, 192.0, 0.0, 0.0, 0.0, 0.0, 0.0, 0.0, 0.0, 0.0, 0.0, 1.6814201085251389E9, 0.0, 2023-04-13 17:08:28.525
254.0, 6105.9154398340515, 12648.785132024901, -5727.343943994516, -6757.401735472887, 15235.597221326498, 21356.890661345802, 15144.402103948845, -126730.94889294493, -0.14200000000000002, 0.978, 0.182, 192.0, 0.0, 0.0, 0.0, 0.0, 0.0, 0.0, 0.0, 0.0, 0.0, 1.681420108525158E9, 0.0, 2023-04-13 17:08:28.525
255.0, 6249.7265636594975, 12788.684700570668, -5751.640290217435, -6760.374517485442, 15219.10163391848, 21336.550573891473, 15135.863737566917, -126720.13064862856, -0.14200000000000002, 0.978, 0.182, 192.0, 0.0, 0.0, 0.0, 0.0, 0.0, 0.0, 0.0, 0.0, 0.0, 1.6814201085251768E9, 0.0, 2023-04-13 17:08:28.525
0.0, 6465.9126360312275, 12994.365453048404, -5789.750014513733, -6790.4599655222855, 15175.694546186274, 21350.386303709307, 15091.22730388967, -126676.0977120516, -0.14200000000000002, 0.978, 0.182, 192.0, 0.0, 0.0, 0.0, 0.0, 0.0, 0.0, 0.0, 0.0, 0.0, 1.6814201085252044E9, 0.0, 2023-04-13 17:08:28.525
1.0, 6256.09681082926, 12808.510697902526, -5762.659700233901, -6783.329759041043, 15198.694491230786, 21399.0013478996, 15113.154365200326, -126590.93756567688, -0.14200000000000002, 0.978, 0.182, 192.0, 0.0, 0.0, 0.0, 0.0, 0.0, 0.0, 0.0, 0.0, 0.0, 1.6814201085252235E9, 0.0, 2023-04-13 17:08:28.525
2.0, 6084.9048000460625, 12650.12623669222, -5729.4226562288595, -6762.363822741964, 15233.540860836609, 21409.529019538048, 15123.32440892749, -126544.2224197653, -0.146, 0.972, 0.186, 192.0, 251.0, 112.0, 30.0, 96.0, 5.0, 208.0, 0.0, 0.0, 0.0, 1.6814201085252428E9, 0.0, 2023-04-13 17:08:28.525
3.0, 6180.637321548143, 12747.37867681726, -5750.410944272393, -6772.3774042579425, 15220.487442074711, 21395.04508913101, 15118.787004803064, -126527.57037014609, -0.146, 0.972, 0.186, 192.0, 0.0, 0.0, 0.0, 0.0, 0.0, 0.0, 0.0, 0.0, 0.0, 1.6814201085252633E9, 0.0, 2023-04-13 17:08:28.525
4.0, 6432.139150159258, 12983.90483664332, -5771.376880571471, -6785.229657319744, 15196.861648185451, 21390.53003675104, 15107.387615130856, -126502.42465763386, -0.146, 0.972, 0.186, 192.0, 0.0, 0.0, 0.0, 0.0, 0.0, 0.0, 0.0, 0.0, 0.0, 1.6814201085252824E9, 0.0, 2023-04-13 17:08:28.525
5.0, 6281.57779950831, 12853.728276935612, -5751.595586728524, -6767.303558266588, 15212.776090237629, 21424.795261001025, 15121.536269371067, -126434.67652018984, -0.146, 0.972, 0.186, 192.0, 0.0, 0.0, 0.0, 0.0, 0.0, 0.0, 0.0, 0.0, 0.0, 1.6814201085253012E9, 0.0, 2023-04-13 17:08:28.525
6.0, 6071.24788418387, 12663.134951965209, -5725.824025371555, -6746.561139412062, 15239.73229405073, 21449.136310712853, 15137.51776665661, -126374.03623748258, -0.146, 0.972, 0.186, 192.0, 0.0, 0.0, 0.0, 0.0, 0.0, 0.0, 0.0, 0.0, 0.0, 1.68142010852532E9, 0.0, 2023-04-13 17:08:28.525
7.0, 6127.842501144708, 12719.99778985951, -5750.925034394865, -6759.189875029311, 15220.845069985995, 21441.827290275967, 15116.060091979516, -126345.64952202434, -0.146, 0.972, 0.186, 192.0, 0.0, 0.0, 0.0, 0.0, 0.0, 0.0, 0.0, 0.0, 0.0, 1.681420108525339E9, 0.0, 2023-04-13 17:08:28.525
8.0, 6372.9964343305155, 12942.956440801197, -5777.344796341038, -6784.112070096979, 15182.71299394524, 21428.34918836942, 15080.565521784489, -126327.00816714863, -0.146, 0.972, 0.186, 192.0, 0.0, 0.0, 0.0, 0.0, 0.0, 0.0, 0.0, 0.0, 0.0, 1.6814201085253577E9, 0.0, 2023-04-13 17:08:28.525
9.0, 6298.67688401662, 12869.262739332049, -5758.435220531848, -6773.003253102691, 15196.034633640604, 21461.7650463301, 15079.447934561722, -126259.28238144904, -0.146, 0.972, 0.186, 192.0, 0.0, 0.0, 0.0, 0.0, 0.0, 0.0, 0.0, 0.0, 0.0, 1.6814201085253985E9, 0.0, 2023-04-13 17:08:28.525
10.0, 6045.543378060267, 12642.459588344049, -5713.418807198859, -6752.1937790148, 15231.3950933689, 21475.980755803677, 15094.155382413315, -126207.04635465698, -0.146, 0.972, 0.186, 192.0, 0.0, 0.0, 0.0, 0.0, 0.0, 0.0, 0.0, 0.0, 0.0, 1.681420108525418E9, 0.0, 2023-04-13 17:08:28.525
11.0, 6051.488942085379, 12647.466379102038, -5725.3769904824485, -6753.601938915484, 15226.164785166358, 21449.024551990577, 15081.124315395871, -126197.7927324525, -0.146, 0.972, 0.186, 192.0, 0.0, 0.0, 0.0, 0.0, 0.0, 0.0, 0.0, 0.0, 0.0, 1.681420108525437E9, 0.0, 2023-04-13 17:08:28.525
12.0, 6294.452404314567, 12870.760306210555, -5783.536229555158, -6787.084852109534, 15168.251415282657, 21453.874880537376, 15018.539430921011, -126158.29719999996, -0.14200000000000002, 0.964, 0.182, 192.0, 251.0, 144.0, 30.0, 32.0, 5.0, 176.0, 0.0, 0.0, 0.0, 1.681420108525456E9, 0.0, 2023-04-13 17:08:28.525
13.0, 6299.302732861368, 12881.489143549103, -5778.395328330437, -6788.872991665959, 15167.491455971178, 21476.539549415058, 15018.360616965369, -126100.38383011626, -0.14200000000000002, 0.964, 0.182, 192.0, 0.0, 0.0, 0.0, 0.0, 0.0, 0.0, 0.0, 0.0, 0.0, 1.6814201085254765E9, 0.0, 2023-04-13 17:08:28.525
14.0, 6042.838816981175, 12640.336172620795, -5716.436292700326, -6750.830322603027, 15239.68759056182, 21496.566712447013, 15101.218533661191, -126042.51516372147, -0.14200000000000002, 0.964, 0.182, 192.0, 0.0, 0.0, 0.0, 0.0, 0.0, 0.0, 0.0, 0.0, 0.0, 1.6814201085254955E9, 0.0, 2023-04-13 17:08:28.525
15.0, 6004.773796173787, 12606.003893137444, -5720.459606702281, -6755.591244172007, 15240.715770806763, 21494.577407190493, 15093.529533568566, -126004.91952954764, -0.14200000000000002, 0.964, 0.182, 192.0, 0.0, 0.0, 0.0, 0.0, 0.0, 0.0, 0.0, 0.0, 0.0, 1.6814201085255296E9, 0.0, 2023-04-13 17:08:28.525
16.0, 6230.012325049916, 12817.518450918014, -5750.94738613932, -6772.846790891504, 15211.613799525954, 21471.890386568357, 15063.868768676373, -125995.37533466522, -0.14200000000000002, 0.964, 0.182, 192.0, 0.0, 0.0, 0.0, 0.0, 0.0, 0.0, 0.0, 0.0, 0.0, 1.6814201085255492E9, 0.0, 2023-04-13 17:08:28.525
17.0, 6339.312355436368, 12908.490050851113, -5761.542113011135, -6786.9954451317135, 15195.364081306945, 21479.95936631672, 15052.64819295981, -125954.53869754539, -0.14200000000000002, 0.964, 0.182, 192.0, 0.0, 0.0, 0.0, 0.0, 0.0, 0.0, 0.0, 0.0, 0.0, 1.6814201085255682E9, 0.0, 2023-04-13 17:08:28.525
18.0, 6080.367395921636, 12655.870635017232, -5732.596603941513, -6769.9187123678585, 15230.92570673534, 21509.73188993119, 15081.70546075171, -125887.90814732411, -0.14200000000000002, 0.964, 0.182, 192.0, 0.0, 0.0, 0.0, 0.0, 0.0, 0.0, 0.0, 0.0, 0.0, 1.681420108525587E9, 0.0, 2023-04-13 17:08:28.525
19.0, 5993.016778590296, 12561.032183293366, -5709.4625484302705, -6758.966357584758, 15251.288145934124, 21497.21491303622, 15079.93967293974, -125863.27652493436, -0.14200000000000002, 0.964, 0.182, 192.0, 0.0, 0.0, 0.0, 0.0, 0.0, 0.0, 0.0, 0.0, 0.0, 1.681420108525606E9, 0.0, 2023-04-13 17:08:28.525
20.0, 6165.9075219520955, 12729.586688230836, -5731.568423696569, -6756.306499994576, 15232.557384080576, 21470.549281901036, 15056.537396495032, -125857.66623707608, -0.14200000000000002, 0.964, 0.182, 192.0, 0.0, 0.0, 0.0, 0.0, 0.0, 0.0, 0.0, 0.0, 0.0, 1.6814201085256248E9, 0.0, 2023-04-13 17:08:28.525
21.0, 6317.206480170069, 12885.400698828782, -5751.684993706345, -6766.05186057709, 15212.418462326345, 21470.39281968985, 15022.652151900787, -125828.67602451755, -0.14200000000000002, 0.964, 0.182, 192.0, 0.0, 0.0, 0.0, 0.0, 0.0, 0.0, 0.0, 0.0, 0.0, 1.681420108525644E9, 0.0, 2023-04-13 17:08:28.525
22.0, 6073.550113862767, 12658.999879240977, -5721.286621247127, -6743.09661902149, 15247.711866821273, 21512.123526587908, 15042.612259699377, -125752.2330584804, -0.14400000000000002, 0.964, 0.184, 192.0, 251.0, 128.0, 30.0, 32.0, 5.0, 192.0, 0.0, 0.0, 0.0, 1.6814201085256667E9, 0.0, 2023-04-13 17:08:28.525
23.0, 5943.306498921693, 12529.471520122472, -5701.7959000821, -6737.061648018557, 15269.102486265003, 21525.266352327628, 15050.79299817002, -125701.58400554468, -0.14400000000000002, 0.964, 0.184, 192.0, 0.0, 0.0, 0.0, 0.0, 0.0, 0.0, 0.0, 0.0, 0.0, 1.681420108525687E9, 0.0, 2023-04-13 17:08:28.525
24.0, 6075.96410226394, 12658.016402484942, -5695.917391290354, -6727.338639180499, 15275.562140412587, 21486.799000120045, 15045.83091090094, -125712.15638067204, -0.14400000000000002, 0.964, 0.184, 192.0, 0.0, 0.0, 0.0, 0.0, 0.0, 0.0, 0.0, 0.0, 0.0, 1.681420108525706E9, 0.0, 2023-04-13 17:08:28.525
25.0, 6290.965532179539, 12858.086867104395, -5727.612164927979, -6750.025659802635, 15246.415465642867, 21481.881616339877, 15018.204154754181, -125690.40813331702, -0.14400000000000002, 0.964, 0.184, 192.0, 0.0, 0.0, 0.0, 0.0, 0.0, 0.0, 0.0, 0.0, 0.0, 1.6814201085257487E9, 0.0, 2023-04-13 17:08:28.525
26.0, 6096.460651929457, 12685.196123742597, -5709.060217030074, -6738.894491063892, 15267.984899042238, 21529.468480285228, 15030.184689782225, -125610.23242595584, -0.14400000000000002, 0.964, 0.184, 192.0, 0.0, 0.0, 0.0, 0.0, 0.0, 0.0, 0.0, 0.0, 0.0, 1.6814201085257804E9, 0.0, 2023-04-13 17:08:28.525
27.0, 5927.213242913872, 12517.200412416509, -5674.839696268999, -6716.788615797594, 15301.020777347181, 21527.501526773158, 15044.69097193372, -125579.29761162969, -0.14400000000000002, 0.964, 0.184, 192.0, 0.0, 0.0, 0.0, 0.0, 0.0, 0.0, 0.0, 0.0, 0.0, 1.6814201085258164E9, 0.0, 2023-04-13 17:08:28.525
28.0, 6019.972982403396, 12600.594770979258, -5692.184649966318, -6725.3046304350655, 15292.460059220799, 21502.73579391668, 15029.335323492924, -125576.36953310604, -0.14400000000000002, 0.964, 0.184, 192.0, 0.0, 0.0, 0.0, 0.0, 0.0, 0.0, 0.0, 0.0, 0.0, 1.6814201085258365E9, 0.0, 2023-04-13 17:08:28.525
29.0, 6266.199799323059, 12833.388189481282, -5722.292449747616, -6754.451305204786, 15269.281300220646, 21494.68916591277, 15013.420881440745, -125556.87881194102, -0.14400000000000002, 0.964, 0.184, 192.0, 0.0, 0.0, 0.0, 0.0, 0.0, 0.0, 0.0, 0.0, 0.0, 1.6814201085258555E9, 0.0, 2023-04-13 17:08:28.525
30.0, 6128.133073822627, 12717.784967158434, -5710.423673441848, -6774.836096148026, 15284.927521339361, 21529.133204118396, 15016.63953264231, -125489.19772973034, -0.14400000000000002, 0.964, 0.184, 192.0, 0.0, 0.0, 0.0, 0.0, 0.0, 0.0, 0.0, 0.0, 0.0, 1.6814201085258746E9, 0.0, 2023-04-13 17:08:28.525
31.0, 5923.6593155454775, 12526.901069510111, -5687.557838864069, -6750.271528991643, 15316.93521939936, 21551.08261717351, 15018.87470708784, -125431.53022903565, -0.14400000000000002, 0.964, 0.184, 192.0, 0.0, 0.0, 0.0, 0.0, 0.0, 0.0, 0.0, 0.0, 0.0, 1.6814201085258937E9, 0.0, 2023-04-13 17:08:28.525
32.0, 5973.101374280617, 12567.670651396591, -5688.943647020298, -6720.767226310638, 15310.07323385158, 21527.278009328606, 14987.850485783874, -125423.41654579838, -0.14200000000000002, 0.978, 0.178, 192.0, 251.0, 144.0, 30.0, 144.0, 5.0, 144.0, 0.0, 0.0, 0.0, 1.6814201085259125E9, 0.0, 2023-04-13 17:08:28.525
33.0, 6218.858804566718, 12787.745927303546, -5725.265231760172, -6736.748723596183, 15274.042221789627, 21506.043852096063, 14942.990534662073, -125415.63813872793, -0.14200000000000002, 0.978, 0.178, 192.0, 0.0, 0.0, 0.0, 0.0, 0.0, 0.0, 0.0, 0.0, 0.0, 1.6814201085259328E9, 0.0, 2023-04-13 17:08:28.525
34.0, 6152.116495623171, 12720.824804404356, -5708.4120164408705, -6730.244365959688, 15287.095640551524, 21517.7785179351, 14947.237366108582, -125371.11346377296, -0.14200000000000002, 0.978, 0.178, 192.0, 0.0, 0.0, 0.0, 0.0, 0.0, 0.0, 0.0, 0.0, 0.0, 1.6814201085259516E9, 0.0, 2023-04-13 17:08:28.525
35.0, 5912.908126462475, 12486.46676379046, -5688.2730946866395, -6719.0237902431245, 15311.324931541078, 21541.516070546637, 14964.068229683427, -125310.2273118767, -0.14200000000000002, 0.978, 0.178, 192.0, 0.0, 0.0, 0.0, 0.0, 0.0, 0.0, 0.0, 0.0, 0.0, 1.6814201085259707E9, 0.0, 2023-04-13 17:08:28.525
36.0, 5908.437777571414, 12483.270464333353, -5683.4004143953825, -6724.499967634674, 15306.78752741665, 21517.443241768273, 14938.296668326459, -125299.34201232696, -0.14200000000000002, 0.978, 0.178, 192.0, 0.0, 0.0, 0.0, 0.0, 0.0, 0.0, 0.0, 0.0, 0.0, 1.6814201085259895E9, 0.0, 2023-04-13 17:08:28.525
37.0, 6140.851216417696, 12693.17569651314, -5720.9736968247535, -6751.255005747677, 15266.59909088601, 21465.92247079879, 14894.353138727325, -125319.90561722584, -0.14200000000000002, 0.978, 0.178, 192.0, 0.0, 0.0, 0.0, 0.0, 0.0, 0.0, 0.0, 0.0, 0.0, 1.6814201085260088E9, 0.0, 2023-04-13 17:08:28.526
38.0, 6171.897789466118, 12715.818013646367, -5759.530456010158, -6782.189820073822, 15228.087035189516, 21493.817447879013, 14864.535911623945, -125257.34308449544, -0.14200000000000002, 0.978, 0.178, 192.0, 0.0, 0.0, 0.0, 0.0, 0.0, 0.0, 0.0, 0.0, 0.0, 1.6814201085260277E9, 0.0, 2023-04-13 17:08:28.526
39.0, 5930.655411559989, 12475.8943886631, -5715.095188033008, -6753.154904026378, 15269.773038598662, 21519.8795819139, 14904.009092332017, -125193.81942675346, -0.14200000000000002, 0.978, 0.178, 192.0, 0.0, 0.0, 0.0, 0.0, 0.0, 0.0, 0.0, 0.0, 0.0, 1.6814201085260465E9, 0.0, 2023-04-13 17:08:28.526
40.0, 5904.950905436386, 12435.303620732264, -5717.285658989627, -6755.188912771811, 15270.018907787671, 21511.92236088781, 14904.657292921222, -125164.82921419494, -0.14200000000000002, 0.978, 0.178, 192.0, 0.0, 0.0, 0.0, 0.0, 0.0, 0.0, 0.0, 0.0, 0.0, 1.6814201085260894E9, 0.0, 2023-04-13 17:08:28.526
41.0, 6134.21274831447, 12633.54124230638, -5739.503292978203, -6774.00908160318, 15239.888756261917, 21477.567729660004, 14867.84396980333, -125167.82434795194, -0.14200000000000002, 0.978, 0.178, 192.0, 0.0, 0.0, 0.0, 0.0, 0.0, 0.0, 0.0, 0.0, 0.0, 1.6814201085261087E9, 0.0, 2023-04-13 17:08:28.526
42.0, 6257.080287585293, 12739.28734532444, -5771.108659638007, -6802.44050055033, 15209.57979078052, 21492.05166006704, 14848.733228294042, -125122.40560321875, -0.15, 0.964, 0.17, 192.0, 251.0, 80.0, 30.0, 32.0, 5.0, 80.0, 0.0, 0.0, 0.0, 1.6814201085261278E9, 0.0, 2023-04-13 17:08:28.526
43.0, 6012.373389288591, 12510.785461757834, -5730.026153329152, -6783.910904396881, 15246.214299942769, 21517.890276657377, 14865.206463957604, -125060.08893967736, -0.15, 0.964, 0.17, 192.0, 0.0, 0.0, 0.0, 0.0, 0.0, 0.0, 0.0, 0.0, 0.0, 1.681420108526152E9, 0.0, 2023-04-13 17:08:28.526
44.0, 5923.927536478942, 12422.384312437096, -5707.160318751374, -6748.170465012845, 15267.202587986301, 21494.599758934946, 14859.953804010607, -125050.85766921732, -0.15, 0.964, 0.17, 192.0, 0.0, 0.0, 0.0, 0.0, 0.0, 0.0, 0.0, 0.0, 0.0, 1.6814201085261707E9, 0.0, 2023-04-13 17:08:28.526
45.0, 6096.281837973815, 12581.05934632532, -5742.096095335019, -6767.348261755498, 15232.713846291763, 21478.43944769376, 14825.353303593793, -125036.19492485463, -0.15, 0.964, 0.17, 192.0, 0.0, 0.0, 0.0, 0.0, 0.0, 0.0, 0.0, 0.0, 0.0, 1.6814201085261898E9, 0.0, 2023-04-13 17:08:28.526
46.0, 6260.455400998045, 12735.644010978223, -5780.3175783535935, -6800.63000924945, 15184.85876141295, 21489.928244343788, 14774.145457046683, -124991.98317432204, -0.15, 0.964, 0.17, 192.0, 0.0, 0.0, 0.0, 0.0, 0.0, 0.0, 0.0, 0.0, 0.0, 1.6814201085262089E9, 0.0, 2023-04-13 17:08:28.526
47.0, 6034.233395365882, 12531.013790489887, -5735.211758042784, -6772.355052513487, 15224.913087476862, 21524.774613949612, 14798.866486414254, -124920.70346125406, -0.15, 0.964, 0.17, 192.0, 0.0, 0.0, 0.0, 0.0, 0.0, 0.0, 0.0, 0.0, 0.0, 1.6814201085262277E9, 0.0, 2023-04-13 17:08:28.526
48.0, 5905.733216492322, 12404.011178494833, -5691.737615077212, -6748.639851646406, 15270.756515354697, 21506.58029396299, 14837.825576999854, -124904.49844652397, -0.15, 0.964, 0.17, 192.0, 0.0, 0.0, 0.0, 0.0, 0.0, 0.0, 0.0, 0.0, 0.0, 1.6814201085262468E9, 0.0, 2023-04-13 17:08:28.526
49.0, 6038.927261701497, 12522.542479341326, -5716.682161889335, -6757.692308150806, 15260.675878605352, 21478.037116293566, 14841.647725301711, -124901.50331276696, -0.15, 0.964, 0.17, 192.0, 0.0, 0.0, 0.0, 0.0, 0.0, 0.0, 0.0, 0.0, 0.0, 1.6814201085262656E9, 0.0, 2023-04-13 17:08:28.526
50.0, 6244.0939240567595, 12724.915173639676, -5753.651947218412, -6785.922561397858, 15224.086072932014, 21473.52206391359, 14796.49720150199, -124877.22931828849, -0.15, 0.964, 0.17, 192.0, 0.0, 0.0, 0.0, 0.0, 0.0, 0.0, 0.0, 0.0, 0.0, 1.6814201085262847E9, 0.0, 2023-04-13 17:08:28.526
51.0, 6054.48407584239, 12552.58322388926, -5729.243842273217, -6774.657282192384, 15253.277451190646, 21508.480192241692, 14819.117166890761, -124810.9563959785, -0.15, 0.964, 0.17, 192.0, 0.0, 0.0, 0.0, 0.0, 0.0, 0.0, 0.0, 0.0, 0.0, 1.6814201085263035E9, 0.0, 2023-04-13 17:08:28.526
52.0, 5888.522373261735, 12383.49227708486, -5708.4120164408705, -6763.660223920372, 15285.151038783913, 21512.83878241048, 14845.894556748219, -124770.83501468123, -0.154, 0.982, 0.176, 192.0, 251.0, 48.0, 30.0, 176.0, 5.0, 128.0, 0.0, 0.0, 0.0, 1.6814201085263224E9, 0.0, 2023-04-13 17:08:28.526
53.0, 5981.058595306707, 12469.725307193436, -5703.092301260508, -6758.42991571783, 15297.623312189975, 21480.875787839388, 14847.503882349001, -124771.30440131479, -0.154, 0.982, 0.176, 192.0, 0.0, 0.0, 0.0, 0.0, 0.0, 0.0, 0.0, 0.0, 0.0, 1.6814201085263565E9, 0.0, 2023-04-13 17:08:28.526
54.0, 6240.09296179926, 12703.70336815159, -5729.914394606876, -6777.227732804744, 15276.16563751288, 21461.9662120302, 14826.493242561013, -124760.1508808316, -0.154, 0.982, 0.176, 192.0, 0.0, 0.0, 0.0, 0.0, 0.0, 0.0, 0.0, 0.0, 0.0, 1.6814201085263755E9, 0.0, 2023-04-13 17:08:28.526
55.0, 6143.958108896984, 12605.020416381409, -5728.796807384111, -6783.530924741141, 15281.351242226512, 21502.132296816388, 14834.003428697995, -124683.14912118306, -0.154, 0.982, 0.176, 192.0, 0.0, 0.0, 0.0, 0.0, 0.0, 0.0, 0.0, 0.0, 0.0, 1.6814201085263944E9, 0.0, 2023-04-13 17:08:28.526
56.0, 5956.695193850422, 12406.626332596104, -5697.146737235396, -6760.352165740987, 15313.98478913126, 21508.457840497238, 14849.783760283442, -124635.58460898217, -0.154, 0.982, 0.176, 192.0, 0.0, 0.0, 0.0, 0.0, 0.0, 0.0, 0.0, 0.0, 0.0, 1.681420108526432E9, 0.0, 2023-04-13 17:08:28.526
57.0, 6012.462796266413, 12447.306507504763, -5700.611257625968, -6748.304575479577, 15312.822498419584, 21478.886482582868, 14839.323143878359, -124629.28141704577, -0.154, 0.982, 0.176, 192.0, 0.0, 0.0, 0.0, 0.0, 0.0, 0.0, 0.0, 0.0, 0.0, 1.681420108526451E9, 0.0, 2023-04-13 17:08:28.526
58.0, 6273.441764526578, 12684.525571408936, -5750.992089628231, -6777.697119438305, 15264.743896096219, 21464.067276009, 14793.792640422898, -124610.41654472549, -0.154, 0.982, 0.176, 192.0, 0.0, 0.0, 0.0, 0.0, 0.0, 0.0, 0.0, 0.0, 0.0, 1.6814201085264702E9, 0.0, 2023-04-13 17:08:28.526
59.0, 6243.088095556271, 12648.427504113615, -5738.855092388999, -6782.43568926283, 15265.101524007503, 21487.849532109445, 14774.726602402521, -124548.07752943964, -0.154, 0.982, 0.176, 192.0, 0.0, 0.0, 0.0, 0.0, 0.0, 0.0, 0.0, 0.0, 0.0, 1.6814201085264893E9, 0.0, 2023-04-13 17:08:28.526
60.0, 6018.788339947265, 12420.84204206968, -5721.577193925046, -6769.069346078557, 15291.02954757566, 21507.608474207937, 14791.78098342192, -124485.62675543151, -0.154, 0.982, 0.176, 192.0, 0.0, 0.0, 0.0, 0.0, 0.0, 0.0, 0.0, 0.0, 0.0, 1.6814201085265076E9, 0.0, 2023-04-13 17:08:28.526
61.0, 6019.995334147851, 12417.64574261257, -5732.015458585675, -6781.876895651448, 15281.060669548593, 21495.20325603524, 14787.377689764226, -124458.13410975148, -0.154, 0.982, 0.176, 192.0, 0.0, 0.0, 0.0, 0.0, 0.0, 0.0, 0.0, 0.0, 0.0, 1.6814201085265267E9, 0.0, 2023-04-13 17:08:28.526
62.0, 6257.795543407863, 12640.671448787625, -5754.635423974446, -6799.2665528376765, 15253.389209912923, 21470.996316790144, 14760.7344103735, -124446.75707182374, -0.16, 0.974, 0.168, 192.0, 251.0, 0.0, 30.0, 112.0, 5.0, 64.0, 0.0, 0.0, 0.0, 1.6814201085265453E9, 0.0, 2023-04-13 17:08:28.526
63.0, 6301.493203817989, 12676.74716433849, -5739.682106933846, -6785.989616631225, 15260.675878605352, 21468.291755711052, 14761.919052829631, -124415.10700167502, -0.16, 0.974, 0.168, 192.0, 0.0, 0.0, 0.0, 0.0, 0.0, 0.0, 0.0, 0.0, 0.0, 1.6814201085265653E9, 0.0, 2023-04-13 17:08:28.526
64.0, 6070.130296961105, 12442.165606280043, -5708.2332024852285, -6763.973148342747, 15296.639835433942, 21486.53077918658, 14799.112355603262, -124356.81365213558, -0.16, 0.974, 0.168, 192.0, 0.0, 0.0, 0.0, 0.0, 0.0, 0.0, 0.0, 0.0, 0.0, 1.6814201085265875E9, 0.0, 2023-04-13 17:08:28.526
65.0, 6039.3519448461475, 12398.959684247933, -5699.627780869935, -6766.9235786108475, 15302.317178525589, 21463.6649446088, 14790.998672365986, -124340.72039612776, -0.16, 0.974, 0.168, 192.0, 0.0, 0.0, 0.0, 0.0, 0.0, 0.0, 0.0, 0.0, 0.0, 1.6814201085266063E9, 0.0, 2023-04-13 17:08:28.526
66.0, 6255.04627883986, 12601.108861101731, -5740.173845311862, -6792.024587634157, 15265.34739319651, 21442.319028653983, 14756.576985904812, -124328.02460527714, -0.16, 0.974, 0.168, 192.0, 0.0, 0.0, 0.0, 0.0, 0.0, 0.0, 0.0, 0.0, 0.0, 1.6814201085266252E9, 0.0, 2023-04-13 17:08:28.526
67.0, 6364.346309226312, 12715.058054334886, -5753.696650707323, -6802.596962761518, 15243.554442352588, 21444.889479266345, 14733.286468182383, -124292.46297984874, -0.16, 0.974, 0.168, 192.0, 0.0, 0.0, 0.0, 0.0, 0.0, 0.0, 0.0, 0.0, 0.0, 1.681420108526644E9, 0.0, 2023-04-13 17:08:28.526
68.0, 6121.874585375141, 12479.448316031494, -5724.661734659879, -6781.094584595512, 15268.49898916471, 21471.82333133499, 14745.401113677159, -124226.59238893895, -0.16, 0.974, 0.168, 192.0, 0.0, 0.0, 0.0, 0.0, 0.0, 0.0, 0.0, 0.0, 0.0, 1.6814201085266628E9, 0.0, 2023-04-13 17:08:28.526
69.0, 6047.24211063887, 12389.929579487989, -5694.21865871175, -6759.927482596337, 15297.198629045324, 21442.743711798634, 14761.96375631854, -124218.76927837961, -0.16, 0.974, 0.168, 192.0, 0.0, 0.0, 0.0, 0.0, 0.0, 0.0, 0.0, 0.0, 0.0, 1.6814201085266817E9, 0.0, 2023-04-13 17:08:28.526
70.0, 6228.760627360419, 12552.67263086708, -5726.874557360954, -6778.904113638892, 15269.661279876385, 21417.776813242057, 14736.035732750384, -124209.76152536411, -0.16, 0.974, 0.168, 192.0, 0.0, 0.0, 0.0, 0.0, 0.0, 0.0, 0.0, 0.0, 0.0, 1.6814201085267005E9, 0.0, 2023-04-13 17:08:28.526
71.0, 6413.475443539077, 12723.171737572162, -5747.5052174932025, -6793.9244859128585, 15242.25804117418, 21406.66799624777, 14695.735537497467, -124185.10755122991, -0.16, 0.974, 0.168, 192.0, 0.0, 0.0, 0.0, 0.0, 0.0, 0.0, 0.0, 0.0, 0.0, 1.6814201085267365E9, 0.0, 2023-04-13 17:08:28.526
72.0, 6198.60812409021, 12519.748511284413, -5740.5761767120575, -6789.945875399813, 15258.530111137643, 21441.9614007427, 14694.372081085692, -124111.39149801631, -0.154, 0.974, 0.17, 192.0, 251.0, 48.0, 30.0, 112.0, 5.0, 80.0, 0.0, 0.0, 0.0, 1.6814201085267603E9, 0.0, 2023-04-13 17:08:28.526
73.0, 6069.77266904982, 12389.415489365518, -5708.36731295196, -6781.809840418082, 15293.756460399207, 21431.791357015536, 14700.988197444463, -124084.65881164777, -0.154, 0.974, 0.17, 192.0, 0.0, 0.0, 0.0, 0.0, 0.0, 0.0, 0.0, 0.0, 0.0, 1.6814201085268004E9, 0.0, 2023-04-13 17:08:28.526
74.0, 6198.161089201104, 12519.770863028869, -5739.927976122854, -6784.804974175093, 15284.54754168362, 21405.1033741359, 14688.359461827215, -124076.79099759948, -0.154, 0.974, 0.17, 192.0, 0.0, 0.0, 0.0, 0.0, 0.0, 0.0, 0.0, 0.0, 0.0, 1.6814201085268264E9, 0.0, 2023-04-13 17:08:28.526
75.0, 6425.254812867023, 12755.648822265724, -5773.3885375724485, -6813.68342801135, 15256.250233203202, 21409.79724047151, 14654.89890037762, -124040.02237797051, -0.154, 0.974, 0.17, 192.0, 0.0, 0.0, 0.0, 0.0, 0.0, 0.0, 0.0, 0.0, 0.0, 1.6814201085268457E9, 0.0, 2023-04-13 17:08:28.526
76.0, 6269.753726691452, 12604.327512303294, -5740.1067900784965, -6784.91673289737, 15296.326911011567, 21448.309296168005, 14689.924083939086, -123968.49679571352, -0.154, 0.974, 0.17, 192.0, 0.0, 0.0, 0.0, 0.0, 0.0, 0.0, 0.0, 0.0, 0.0, 1.6814201085268648E9, 0.0, 2023-04-13 17:08:28.526
77.0, 6093.756090850365, 12416.908135045545, -5699.828946570033, -6750.1374185249115, 15341.410379577921, 21436.619333817882, 14722.91525875512, -123944.60278089081, -0.154, 0.974, 0.17, 192.0, 0.0, 0.0, 0.0, 0.0, 0.0, 0.0, 0.0, 0.0, 0.0, 1.681420108526884E9, 0.0, 2023-04-13 17:08:28.526
78.0, 6166.98040568595, 12484.902141678589, -5728.774455639656, -6764.554293698585, 15321.427920034877, 21418.536772553536, 14708.788956259366, -123928.5542283719, -0.154, 0.974, 0.17, 192.0, 0.0, 0.0, 0.0, 0.0, 0.0, 0.0, 0.0, 0.0, 0.0, 1.681420108526903E9, 0.0, 2023-04-13 17:08:28.526
79.0, 6398.656236965208, 12706.765557141967, -5773.589703272546, -6802.395797061419, 15270.68946012133, 21420.257856876597, 14662.833769659253, -123893.86432097726, -0.154, 0.974, 0.17, 192.0, 0.0, 0.0, 0.0, 0.0, 0.0, 0.0, 0.0, 0.0, 0.0, 1.6814201085269215E9, 0.0, 2023-04-13 17:08:28.526
80.0, 6287.523363533422, 12611.16714610662, -5729.690877162323, -6770.030471090135, 15308.665073950897, 21435.121766939374, 14691.935740940064, -123846.45627098755, -0.154, 0.974, 0.17, 192.0, 0.0, 0.0, 0.0, 0.0, 0.0, 0.0, 0.0, 0.0, 0.0, 1.6814201085269403E9, 0.0, 2023-04-13 17:08:28.526
81.0, 6081.127355233116, 12412.326027432207, -5697.347902935494, -6748.595148157496, 15354.284984384178, 21439.502708852615, 14721.663561065623, -123804.43499141157, -0.154, 0.974, 0.17, 192.0, 0.0, 0.0, 0.0, 0.0, 0.0, 0.0, 0.0, 0.0, 0.0, 1.6814201085269592E9, 0.0, 2023-04-13 17:08:28.526
82.0, 6122.142806308604, 12453.810865141257, -5713.642324643412, -6756.753534883683, 15345.053713924137, 21422.448327833215, 14705.749119013444, -123784.29606965734, -0.158, 0.994, 0.17400000000000002, 192.0, 251.0, 16.0, 31.0, 16.0, 5.0, 112.0, 0.0, 0.0, 0.0, 1.6814201085269783E9, 0.0, 2023-04-13 17:08:28.526
83.0, 6362.580521414343, 12683.922074308644, -5753.741354196233, -6792.136346356434, 15295.768117400185, 21410.71366199418, 14645.399408984114, -123759.93266820106, -0.158, 0.994, 0.17400000000000002, 192.0, 0.0, 0.0, 0.0, 0.0, 0.0, 0.0, 0.0, 0.0, 0.0, 1.6814201085269983E9, 0.0, 2023-04-13 17:08:28.526
84.0, 6319.195785426591, 12651.802617526368, -5742.297261035116, -6789.00710213269, 15306.049919849625, 21425.599923801416, 14648.461597974492, -123707.98721408693, -0.158, 0.994, 0.17400000000000002, 192.0, 0.0, 0.0, 0.0, 0.0, 0.0, 0.0, 0.0, 0.0, 0.0, 1.681420108527017E9, 0.0, 2023-04-13 17:08:28.527
85.0, 6086.11179424665, 12428.21811773993, -5722.784188125634, -6778.032395605135, 15331.687370739863, 21455.52890962707, 14682.212732102005, -123636.23811438539, -0.158, 0.994, 0.17400000000000002, 192.0, 0.0, 0.0, 0.0, 0.0, 0.0, 0.0, 0.0, 0.0, 0.0, 1.681420108527036E9, 0.0, 2023-04-13 17:08:28.527
86.0, 6072.3431196621805, 12421.110263003144, -5724.639382915424, -6784.268532308166, 15320.265629323201, 21432.774833771568, 14663.929005137565, -123621.41890781152, -0.158, 0.994, 0.17400000000000002, 192.0, 0.0, 0.0, 0.0, 0.0, 0.0, 0.0, 0.0, 0.0, 0.0, 1.6814201085270593E9, 0.0, 2023-04-13 17:08:28.527
87.0, 6294.8100322258515, 12634.569422551325, -5759.239883332239, -6799.646532493417, 15280.144248025925, 21409.61842651587, 14621.594801139212, -123611.0253466398, -0.158, 0.994, 0.17400000000000002, 192.0, 0.0, 0.0, 0.0, 0.0, 0.0, 0.0, 0.0, 0.0, 0.0, 1.6814201085271015E9, 0.0, 2023-04-13 17:08:28.527
88.0, 6332.092741977303, 12675.98720502701, -5756.065935619586, -6799.445366793319, 15264.095695507014, 21422.224810388663, 14603.065204985764, -123565.45013969543, -0.158, 0.994, 0.17400000000000002, 192.0, 0.0, 0.0, 0.0, 0.0, 0.0, 0.0, 0.0, 0.0, 0.0, 1.6814201085271208E9, 0.0, 2023-04-13 17:08:28.527
89.0, 6084.055433756761, 12440.265708001341, -5688.071928986541, -6768.868180378459, 15321.852603179528, 21415.251066118606, 14645.175891539562, -123535.45409863642, -0.158, 0.994, 0.17400000000000002, 192.0, 0.0, 0.0, 0.0, 0.0, 0.0, 0.0, 0.0, 0.0, 0.0, 1.6814201085271544E9, 0.0, 2023-04-13 17:08:28.527
90.0, 6038.994316934863, 12391.471849855407, -5676.739594547701, -6761.67091866385, 15342.03622842267, 21372.55923420897, 14666.074772605274, -123541.04203475024, -0.158, 0.994, 0.17400000000000002, 192.0, 0.0, 0.0, 0.0, 0.0, 0.0, 0.0, 0.0, 0.0, 0.0, 1.6814201085271747E9, 0.0, 2023-04-13 17:08:28.527
91.0, 6226.5478046593435, 12576.72310790099, -5731.121388807463, -6787.688349209828, 15287.11799229598, 21357.382399723818, 14619.56079239378, -123521.68542405195, -0.158, 0.994, 0.17400000000000002, 192.0, 0.0, 0.0, 0.0, 0.0, 0.0, 0.0, 0.0, 0.0, 0.0, 1.6814201085271935E9, 0.0, 2023-04-13 17:08:28.527
92.0, 6331.355134410279, 12679.384670184216, -5760.335118810549, -6804.228640106755, 15248.047142988104, 21360.869271858846, 14580.691108786, -123483.37453405555, -0.162, 0.964, 0.164, 192.0, 250.0, 240.0, 30.0, 32.0, 5.0, 32.0, 0.0, 0.0, 0.0, 1.6814201085272129E9, 0.0, 2023-04-13 17:08:28.527
93.0, 6092.68320711651, 12452.067429073744, -5736.485807476736, -6791.622256233962, 15266.085000763536, 21385.500894248595, 14585.78730652181, -123416.85574255655, -0.162, 0.964, 0.164, 192.0, 0.0, 0.0, 0.0, 0.0, 0.0, 0.0, 0.0, 0.0, 0.0, 1.681420108527233E9, 0.0, 2023-04-13 17:08:28.527
94.0, 5989.619313433089, 12356.245500593843, -5713.351751965493, -6781.206343317788, 15288.59320743003, 21355.683667145215, 14597.03023398283, -123406.79745755166, -0.162, 0.964, 0.164, 192.0, 0.0, 0.0, 0.0, 0.0, 0.0, 0.0, 0.0, 0.0, 0.0, 1.6814201085272515E9, 0.0, 2023-04-13 17:08:28.527
95.0, 6140.4935885064115, 12504.437566332528, -5736.128179565451, -6791.801070189604, 15266.085000763536, 21316.165782948232, 14584.043870454298, -123411.44662039836, -0.162, 0.964, 0.164, 192.0, 0.0, 0.0, 0.0, 0.0, 0.0, 0.0, 0.0, 0.0, 0.0, 1.6814201085272708E9, 0.0, 2023-04-13 17:08:28.527
96.0, 6314.166642924148, 12667.918225278643, -5763.218493845284, -6809.928334942858, 15234.099654447993, 21300.49721008506, 14551.946765416476, -123393.78874227867, -0.162, 0.964, 0.164, 192.0, 0.0, 0.0, 0.0, 0.0, 0.0, 0.0, 0.0, 0.0, 0.0, 1.6814201085272896E9, 0.0, 2023-04-13 17:08:28.527
97.0, 6098.4052536970685, 12464.204426312976, -5759.798676943622, -6812.25291636621, 15240.87223301795, 21340.283315215507, 14549.756294459856, -123310.99788081621, -0.162, 0.964, 0.164, 192.0, 0.0, 0.0, 0.0, 0.0, 0.0, 0.0, 0.0, 0.0, 0.0, 1.6814201085273085E9, 0.0, 2023-04-13 17:08:28.527
98.0, 5961.187894485938, 12333.044389849234, -5740.240900545228, -6803.245163350722, 15258.552462882099, 21327.766338320536, 14552.617317750135, -123279.3478106675, -0.162, 0.964, 0.164, 192.0, 0.0, 0.0, 0.0, 0.0, 0.0, 0.0, 0.0, 0.0, 0.0, 1.6814201085273273E9, 0.0, 2023-04-13 17:08:28.527
99.0, 6087.5423058917895, 12456.202501797976, -5762.860865933999, -6814.599849534017, 15239.933459750828, 21300.720727529613, 14531.137291328585, -123266.51790935015, -0.162, 0.964, 0.164, 192.0, 0.0, 0.0, 0.0, 0.0, 0.0, 0.0, 0.0, 0.0, 0.0, 1.681420108527346E9, 0.0, 2023-04-13 17:08:28.527
100.0, 6307.997561454483, 12669.102867734775, -5780.652854520423, -6830.581346819562, 15212.641979770897, 21282.302890098443, 14491.999386787342, -123247.40716784087, -0.162, 0.964, 0.164, 192.0, 0.0, 0.0, 0.0, 0.0, 0.0, 0.0, 0.0, 0.0, 0.0, 1.6814201085273647E9, 0.0, 2023-04-13 17:08:28.527
101.0, 6147.355574054191, 12517.178060672053, -5744.197159313818, -6808.698988997816, 15253.2998029351, 21289.79072449097, 14538.893346654577, -123200.06617308453, -0.162, 0.964, 0.164, 192.0, 0.0, 0.0, 0.0, 0.0, 0.0, 0.0, 0.0, 0.0, 0.0, 1.681420108527384E9, 0.0, 2023-04-13 17:08:28.527
102.0, 5982.109127296106, 12351.976317402878, -5724.058237559586, -6798.439538292831, 15288.459096963299, 21287.756715745534, 14566.318937101238, -123158.04489350854, -0.16, 0.97, 0.16, 192.0, 251.0, 0.0, 30.0, 80.0, 5.0, 0.0, 0.0, 0.0, 0.0, 1.6814201085274029E9, 0.0, 2023-04-13 17:08:28.527
103.0, 6062.262482912837, 12431.190899752486, -5733.691839419823, -6804.608619762495, 15284.324024239068, 21255.25727930752, 14553.243166594884, -123147.74073931466, -0.16, 0.97, 0.16, 192.0, 0.0, 0.0, 0.0, 0.0, 0.0, 0.0, 0.0, 0.0, 0.0, 1.681420108527441E9, 0.0, 2023-04-13 17:08:28.527
104.0, 6305.047131186382, 12666.711231078058, -5752.914339651387, -6817.304410613109, 15270.868274076973, 21231.363264484797, 14541.441445522481, -123130.37343387288, -0.16, 0.97, 0.16, 192.0, 0.0, 0.0, 0.0, 0.0, 0.0, 0.0, 0.0, 0.0, 0.0, 1.68142010852746E9, 0.0, 2023-04-13 17:08:28.527
105.0, 6203.458452637012, 12579.941759102556, -5729.109731806485, -6798.417186548375, 15293.532942954655, 21241.332142511863, 14559.859282953656, -123076.5504332245, -0.16, 0.97, 0.16, 192.0, 0.0, 0.0, 0.0, 0.0, 0.0, 0.0, 0.0, 0.0, 0.0, 1.6814201090049944E9, 0.0, 2023-04-13 17:08:29.004
106.0, 6002.09158683915, 12385.615692808116, -5681.299350416583, -6763.079078564535, 15339.085798154569, 21222.377863213762, 14593.431603125526, -123051.27061024554, -0.16, 0.97, 0.16, 192.0, 0.0, 0.0, 0.0, 0.0, 0.0, 0.0, 0.0, 0.0, 0.0, 1.6814201090051875E9, 0.0, 2023-04-13 17:08:29.005
107.0, 6026.723209228899, 12419.925620547012, -5689.07775748703, -6759.212226773767, 15336.872975453494, 21179.686031304125, 14590.45882111297, -123053.61754341336, -0.16, 0.97, 0.16, 192.0, 0.0, 0.0, 0.0, 0.0, 0.0, 0.0, 0.0, 0.0, 0.0, 1.6814201090052176E9, 0.0, 2023-04-13 17:08:29.005
108.0, 6256.543845718365, 12646.393495368184, -5720.169034024362, -6783.218000318766, 15303.70298668182, 21145.733731476514, 14563.390858577593, -123047.42611019923, -0.16, 0.97, 0.16, 192.0, 0.0, 0.0, 0.0, 0.0, 0.0, 0.0, 0.0, 0.0, 0.0, 1.6814201090052376E9, 0.0, 2023-04-13 17:08:29.005
109.0, 6225.4302174365785, 12628.914431204134, -5726.762798638678, -6793.052767879101, 15300.417280246887, 21163.32455436284, 14557.780570719311, -122987.43402808119, -0.16, 0.97, 0.16, 192.0, 0.0, 0.0, 0.0, 0.0, 0.0, 0.0, 0.0, 0.0, 0.0, 1.6814201090052571E9, 0.0, 2023-04-13 17:08:29.005
110.0, 5994.112014068605, 12405.151117462054, -5697.280847702128, -6783.2403520632215, 15335.55422253063, 21180.42363887115, 14574.41026859406, -122923.4633354501, -0.16, 0.97, 0.16, 192.0, 0.0, 0.0, 0.0, 0.0, 0.0, 0.0, 0.0, 0.0, 0.0, 1.6814201090052762E9, 0.0, 2023-04-13 17:08:29.005
111.0, 5979.762194128299, 12389.124916687599, -5695.2021354677845, -6779.82053516156, 15341.253917366734, 21147.544222777393, 14568.64351852459, -122914.05325103442, -0.16, 0.97, 0.16, 192.0, 0.0, 0.0, 0.0, 0.0, 0.0, 0.0, 0.0, 0.0, 0.0, 1.6814201090052958E9, 0.0, 2023-04-13 17:08:29.005
112.0, 6195.054196721816, 12595.185648821074, -5731.434313229837, -6797.567820259073, 15300.953722113816, 21112.94372236058, 14534.311239041239, -122910.16404749919, -0.16, 0.984, 0.154, 192.0, 251.0, 0.0, 30.0, 192.0, 4.0, 208.0, 0.0, 0.0, 0.0, 1.681420109005315E9, 0.0, 2023-04-13 17:08:29.005
113.0, 6235.667316397109, 12639.64326854268, -5740.911452878887, -6810.822404721071, 15284.525189939164, 21126.75710043396, 14526.219907548417, -122855.33521835033, -0.16, 0.984, 0.154, 192.0, 0.0, 0.0, 0.0, 0.0, 0.0, 0.0, 0.0, 0.0, 0.0, 1.6814201090053358E9, 0.0, 2023-04-13 17:08:29.005
114.0, 5986.557124442712, 12411.566068120726, -5687.759004564167, -6781.8321921625375, 15334.816614963605, 21128.433481268108, 14569.202312135973, -122810.85524688427, -0.16, 0.984, 0.154, 192.0, 0.0, 0.0, 0.0, 0.0, 0.0, 0.0, 0.0, 0.0, 0.0, 1.681420109005355E9, 0.0, 2023-04-13 17:08:29.005
115.0, 5931.325963893648, 12362.34752683014, -5680.69585331629, -6763.995500087202, 15346.484225569277, 21091.50839942794, 14574.700841271979, -122806.76487764894, -0.16, 0.984, 0.154, 192.0, 0.0, 0.0, 0.0, 0.0, 0.0, 0.0, 0.0, 0.0, 0.0, 1.681420109005374E9, 0.0, 2023-04-13 17:08:29.005
116.0, 6117.136015550615, 12541.429703406062, -5704.880440816933, -6775.797221159604, 15314.70004495383, 21046.179061672578, 14545.531814757804, -122814.72209867503, -0.16, 0.984, 0.154, 192.0, 0.0, 0.0, 0.0, 0.0, 0.0, 0.0, 0.0, 0.0, 0.0, 1.681420109005393E9, 0.0, 2023-04-13 17:08:29.005
117.0, 6222.636249379665, 12646.482902346004, -5729.824987629055, -6798.573648759562, 15284.54754168362, 21035.204355145022, 14518.553259200247, -122790.62691815221, -0.16, 0.984, 0.154, 192.0, 0.0, 0.0, 0.0, 0.0, 0.0, 0.0, 0.0, 0.0, 0.0, 1.6814201090054271E9, 0.0, 2023-04-13 17:08:29.005
118.0, 5979.225752261371, 12424.463024671439, -5705.327475706038, -6791.890477167425, 15301.736033169751, 21059.858329279225, 14531.003180861853, -122724.35399584223, -0.16, 0.984, 0.154, 192.0, 0.0, 0.0, 0.0, 0.0, 0.0, 0.0, 0.0, 0.0, 0.0, 1.6814201090054996E9, 0.0, 2023-04-13 17:08:29.005
119.0, 5881.816849925143, 12328.596392702628, -5695.827984312533, -6786.816631176071, 15309.64855070693, 21038.60182030223, 14531.763140173334, -122703.79039094334, -0.16, 0.984, 0.154, 192.0, 0.0, 0.0, 0.0, 0.0, 0.0, 0.0, 0.0, 0.0, 0.0, 1.68142010900552E9, 0.0, 2023-04-13 17:08:29.005
120.0, 6034.792188977264, 12477.257845074875, -5703.516984405159, -6789.141212599423, 15295.388137744445, 20989.025651100357, 14512.987674830876, -122716.9108649386, -0.16, 0.984, 0.154, 192.0, 0.0, 0.0, 0.0, 0.0, 0.0, 0.0, 0.0, 0.0, 0.0, 1.6814201090055397E9, 0.0, 2023-04-13 17:08:29.005
121.0, 6219.4399499225565, 12648.047524457876, -5745.47120874777, -6818.645515280427, 15253.433913401834, 20990.992604612424, 14482.231674460374, -122678.44351273103, -0.16, 0.984, 0.154, 192.0, 0.0, 0.0, 0.0, 0.0, 0.0, 0.0, 0.0, 0.0, 0.0, 1.6814201090055616E9, 0.0, 2023-04-13 17:08:29.005
122.0, 6008.28302005327, 12456.738943664903, -5687.624894097436, -6772.824439147048, 15301.691329680842, 20995.932340137046, 14493.519305410304, -122635.32699767673, -0.156, 0.976, 0.15, 192.0, 251.0, 32.0, 30.0, 128.0, 4.0, 176.0, 0.0, 0.0, 0.0, 1.681420109005581E9, 0.0, 2023-04-13 17:08:29.005
123.0, 5867.578788707112, 12330.1610148145, -5680.807612038567, -6766.409488488375, 15317.918696155393, 20984.979985353948, 14495.083927522175, -122605.39801185108, -0.156, 0.976, 0.15, 192.0, 0.0, 0.0, 0.0, 0.0, 0.0, 0.0, 0.0, 0.0, 0.0, 1.681420109005602E9, 0.0, 2023-04-13 17:08:29.005
124.0, 5969.480391678857, 12433.828405598213, -5701.84060357101, -6782.234523562733, 15299.947893613327, 20949.91009830357, 14484.288034950261, -122603.85574148367, -0.156, 0.976, 0.15, 192.0, 0.0, 0.0, 0.0, 0.0, 0.0, 0.0, 0.0, 0.0, 0.0, 1.6814201090056207E9, 0.0, 2023-04-13 17:08:29.005
125.0, 6185.3982431171235, 12631.395474838671, -5737.938670866331, -6810.06244540959, 15260.586471627532, 20932.09575797269, 14447.966450210388, -122587.42720930901, -0.156, 0.976, 0.15, 192.0, 0.0, 0.0, 0.0, 0.0, 0.0, 0.0, 0.0, 0.0, 0.0, 1.6814201090056398E9, 0.0, 2023-04-13 17:08:29.005
126.0, 6034.702781999444, 12488.56782776926, -5696.096205245996, -6780.334625284032, 15299.679672679864, 20938.823633053737, 14473.223921444884, -122543.1260517986, -0.156, 0.976, 0.15, 192.0, 0.0, 0.0, 0.0, 0.0, 0.0, 0.0, 0.0, 0.0, 0.0, 1.6814201090056589E9, 0.0, 2023-04-13 17:08:29.005
127.0, 5864.382489250003, 12323.880174622558, -5677.164277692352, -6767.2141512887665, 15331.75442597323, 20930.173507949534, 14510.30546549624, -122508.97258627089, -0.156, 0.976, 0.15, 192.0, 0.0, 0.0, 0.0, 0.0, 0.0, 0.0, 0.0, 0.0, 0.0, 1.6814201090056777E9, 0.0, 2023-04-13 17:08:29.005
128.0, 5930.945984237907, 12390.331910888186, -5724.617031170968, -6808.25195410871, 15286.156867284402, 20917.835345010204, 14449.978107211366, -122477.54603356673, -0.156, 0.976, 0.15, 192.0, 0.0, 0.0, 0.0, 0.0, 0.0, 0.0, 0.0, 0.0, 0.0, 1.6814201090057075E9, 0.0, 2023-04-13 17:08:29.005
129.0, 6165.929873696551, 12616.531564775893, -5758.994014143231, -6840.2373004242545, 15247.44364588781, 20901.51857155783, 14408.582676480137, -122456.13306237855, -0.156, 0.976, 0.15, 192.0, 0.0, 0.0, 0.0, 0.0, 0.0, 0.0, 0.0, 0.0, 0.0, 1.681420109005727E9, 0.0, 2023-04-13 17:08:29.005
130.0, 6084.211895967948, 12537.160520215097, -5731.411961485382, -6814.286925111643, 15279.898378836917, 20921.90336250107, 14455.141360180542, -122398.51026517276, -0.156, 0.976, 0.15, 192.0, 0.0, 0.0, 0.0, 0.0, 0.0, 0.0, 0.0, 0.0, 0.0, 1.6814201090057511E9, 0.0, 2023-04-13 17:08:29.005
131.0, 5894.624399498034, 12341.336887042153, -5677.767774792645, -6775.86427639297, 15338.929335943383, 20918.461193854953, 14501.163602014018, -122364.04387522268, -0.156, 0.976, 0.15, 192.0, 0.0, 0.0, 0.0, 0.0, 0.0, 0.0, 0.0, 0.0, 0.0, 1.681420109005773E9, 0.0, 2023-04-13 17:08:29.005
132.0, 5917.914917220463, 12373.344585102152, -5678.259513170661, -6765.224846032244, 15349.211138392824, 20891.504990041853, 14495.307444966727, -122354.99141871827, -0.162, 0.984, 0.154, 192.0, 250.0, 240.0, 30.0, 192.0, 4.0, 208.0, 0.0, 0.0, 0.0, 1.681420109005814E9, 0.0, 2023-04-13 17:08:29.005
133.0, 6142.795818185308, 12596.34793953275, -5697.996103524698, -6769.404622245386, 15327.574649760087, 20854.82577739069, 14461.422200372483, -122361.54047984368, -0.162, 0.984, 0.154, 192.0, 0.0, 0.0, 0.0, 0.0, 0.0, 0.0, 0.0, 0.0, 0.0, 1.6814201090058537E9, 0.0, 2023-04-13 17:08:29.005
134.0, 6124.73560866542, 12581.171105047597, -5698.800766325088, -6773.226770547244, 15324.423053791888, 20867.61097521913, 14457.734162537357, -122315.20531358784, -0.162, 0.984, 0.154, 192.0, 0.0, 0.0, 0.0, 0.0, 0.0, 0.0, 0.0, 0.0, 0.0, 1.6814201090059004E9, 0.0, 2023-04-13 17:08:29.005
135.0, 5887.427137783425, 12358.592433761649, -5675.756117791667, -6763.48140996473, 15344.047885423648, 20883.324251571208, 14453.219110157384, -122259.92944954986, -0.162, 0.984, 0.154, 192.0, 0.0, 0.0, 0.0, 0.0, 0.0, 0.0, 0.0, 0.0, 0.0, 1.6814201090059197E9, 0.0, 2023-04-13 17:08:29.005
136.0, 5864.740117161288, 12344.466131265895, -5668.447097354781, -6764.621348931951, 15349.3228971151, 20851.78594014477, 14443.741970508334, -122254.63208611395, -0.162, 0.984, 0.154, 192.0, 0.0, 0.0, 0.0, 0.0, 0.0, 0.0, 0.0, 0.0, 0.0, 1.6814201090059388E9, 0.0, 2023-04-13 17:08:29.005
137.0, 6073.438355140491, 12550.348049443728, -5704.388702438915, -6788.761232943682, 15316.21996357679, 20828.093091022147, 14427.894583689522, -122247.52423137716, -0.162, 0.984, 0.154, 192.0, 0.0, 0.0, 0.0, 0.0, 0.0, 0.0, 0.0, 0.0, 0.0, 1.681420109005958E9, 0.0, 2023-04-13 17:08:29.005
138.0, 6129.049495345294, 12604.551029747849, -5711.563612409069, -6797.478413281252, 15306.65341694992, 20848.947268598946, 14416.94222890642, -122196.67401274134, -0.162, 0.984, 0.154, 192.0, 0.0, 0.0, 0.0, 0.0, 0.0, 0.0, 0.0, 0.0, 0.0, 1.6814201090059772E9, 0.0, 2023-04-13 17:08:29.005
139.0, 5899.318265833648, 12376.965567703912, -5663.149733918874, -6769.605787945484, 15348.294716870156, 20853.79759714575, 14438.645772772525, -122159.21248903424, -0.162, 0.984, 0.154, 192.0, 0.0, 0.0, 0.0, 0.0, 0.0, 0.0, 0.0, 0.0, 0.0, 1.6814201090059962E9, 0.0, 2023-04-13 17:08:29.005
140.0, 5848.021012308719, 12319.968619342879, -5671.464582856248, -6773.003253102691, 15348.853510481538, 20834.26217249181, 14442.780845496756, -122144.46033769374, -0.162, 0.984, 0.154, 192.0, 0.0, 0.0, 0.0, 0.0, 0.0, 0.0, 0.0, 0.0, 0.0, 1.681420109006015E9, 0.0, 2023-04-13 17:08:29.006
141.0, 6022.968116160407, 12492.23351385993, -5709.75312110819, -6805.703855240805, 15307.189858816846, 20813.5644571262, 14400.580751965137, -122132.9715410437, -0.162, 0.984, 0.154, 192.0, 0.0, 0.0, 0.0, 0.0, 0.0, 0.0, 0.0, 0.0, 0.0, 1.681420109006034E9, 0.0, 2023-04-13 17:08:29.006
142.0, 6137.811379171775, 12604.729843703491, -5729.1320835509405, -6829.284945641154, 15275.584492157042, 20809.40703265751, 14366.427286437427, -122107.44584887575, -0.162, 0.986, 0.154, 192.0, 250.0, 240.0, 30.0, 208.0, 4.0, 208.0, 0.0, 0.0, 0.0, 1.6814201090060527E9, 0.0, 2023-04-13 17:08:29.006
143.0, 5915.366818352559, 12394.824611523702, -5669.6093880664575, -6794.77385220216, 15327.060559637614, 20816.671349605484, 14412.583638737637, -122069.559642024, -0.162, 0.986, 0.154, 192.0, 0.0, 0.0, 0.0, 0.0, 0.0, 0.0, 0.0, 0.0, 0.0, 1.6814201090060732E9, 0.0, 2023-04-13 17:08:29.006
144.0, 5819.34372417256, 12303.0036453013, -5650.54335004608, -6781.318102040065, 15351.267498882711, 20791.2574161598, 14446.133607165053, -122063.74818846563, -0.162, 0.986, 0.154, 192.0, 0.0, 0.0, 0.0, 0.0, 0.0, 0.0, 0.0, 0.0, 0.0, 1.681420109006092E9, 0.0, 2023-04-13 17:08:29.006
145.0, 5968.407507945002, 12443.46200745845, -5674.817344524544, -6794.550334757607, 15323.663094480407, 20759.96497392237, 14415.154089349997, -122067.36917106739, -0.162, 0.986, 0.154, 192.0, 0.0, 0.0, 0.0, 0.0, 0.0, 0.0, 0.0, 0.0, 0.0, 1.6814201090061111E9, 0.0, 2023-04-13 17:08:29.006
146.0, 6147.31087056528, 12612.217678096018, -5688.340149920005, -6800.540602271629, 15294.136440054946, 20734.796909665696, 14383.302853501184, -122067.77150246759, -0.162, 0.986, 0.154, 192.0, 0.0, 0.0, 0.0, 0.0, 0.0, 0.0, 0.0, 0.0, 0.0, 1.68142010900613E9, 0.0, 2023-04-13 17:08:29.006
147.0, 5950.839036803131, 12424.708893860448, -5644.1954546207735, -6776.735994426727, 15327.909925926915, 20740.049569612693, 14400.46899324286, -122035.2497142851, -0.162, 0.986, 0.154, 192.0, 0.0, 0.0, 0.0, 0.0, 0.0, 0.0, 0.0, 0.0, 0.0, 1.6814201090061493E9, 0.0, 2023-04-13 17:08:29.006
148.0, 5819.299020683649, 12287.29036894922, -5628.593936990969, -6764.263721020666, 15351.245147138257, 20726.839688639604, 14417.56807775117, -122018.53060943254, -0.162, 0.986, 0.154, 192.0, 0.0, 0.0, 0.0, 0.0, 0.0, 0.0, 0.0, 0.0, 0.0, 1.681420109006168E9, 0.0, 2023-04-13 17:08:29.006
