Sample Index, EXG Channel 0, EXG Channel 1, EXG Channel 2, EXG Channel 3, EXG Channel 4, EXG Channel 5, EXG Channel 6, EXG Channel 7, Accel Channel 0, Accel Channel 1, Accel Channel 2, Other, Other, Other, Other, Other, Other, Other, Analog Channel 0, Analog Channel 1, Analog Channel 2, Timestamp, Other, Timestamp (Formatted)
0.0, 0.0, 0.0, 0.0, 0.0, 0.0, 0.0, 0.0, 0.0, 0.0, 0.0, 0.0, 192.0, 0.0, 0.0, 0.0, 0.0, 0.0, 0.0, 0.0, 0.0, 0.0, 1.6814212308211443E9, 0.0, 2023-04-13 17:27:10.821
1.0, -9719.253744990081, 8350.410562802621, -22166.023810627918, -11142.501073181758, 19009.130478993713, -47261.02021467927, -14658.452827746014, -12861.953718895164, -0.12, 0.97, 0.23800000000000002, 192.0, 252.0, 64.0, 30.0, 80.0, 7.0, 112.0, 0.0, 0.0, 0.0, 1.6814212313103423E9, 0.0, 2023-04-13 17:27:11.310
2.0, -9689.213000442149, 8384.251103907956, -22088.75383004592, -11061.923034420375, 18862.25716617789, -47219.4459699924, -14624.522879662858, -12832.404712725249, -0.12, 0.97, 0.23800000000000002, 192.0, 0.0, 0.0, 0.0, 0.0, 0.0, 0.0, 0.0, 0.0, 0.0, 1.6814212313104055E9, 0.0, 2023-04-13 17:27:11.310
3.0, -9653.450209313656, 8428.015819551447, -22101.04728949634, -10628.969744321079, 19137.518899144998, -47226.53147298473, -14641.532557193346, -12873.263701589549, -0.12, 0.97, 0.23800000000000002, 192.0, 0.0, 0.0, 0.0, 0.0, 0.0, 0.0, 0.0, 0.0, 0.0, 1.6814212313104284E9, 0.0, 2023-04-13 17:27:11.310
4.0, -9672.851523500864, 8418.538679902396, -22165.5320722499, -10727.093902479875, 19275.406810689787, -47266.65285428201, -14673.987290142453, -12895.458983833669, -0.12, 0.97, 0.23800000000000002, 192.0, 0.0, 0.0, 0.0, 0.0, 0.0, 0.0, 0.0, 0.0, 0.0, 1.68142123131045E9, 0.0, 2023-04-13 17:27:11.310
5.0, -9693.10220397737, 8389.012025476935, -22155.47378724501, -11084.38653759796, 19074.62109024776, -47253.44297330892, -14652.596670698724, -12853.549462979969, -0.12, 0.97, 0.23800000000000002, 192.0, 0.0, 0.0, 0.0, 0.0, 0.0, 0.0, 0.0, 0.0, 0.0, 1.6814212313104713E9, 0.0, 2023-04-13 17:27:11.310
6.0, -9681.099317204871, 8384.429917863597, -22107.171667477094, -11124.485567150781, 18847.12503518165, -47220.22828104834, -14627.339199464226, -12827.666142900724, -0.12, 0.97, 0.23800000000000002, 192.0, 0.0, 0.0, 0.0, 0.0, 0.0, 0.0, 0.0, 0.0, 0.0, 1.6814212313104928E9, 0.0, 2023-04-13 17:27:11.310
7.0, -9661.742706506575, 8411.654342610162, -22105.204713965024, -10678.009471656022, 19069.34607855631, -47229.05722010818, -14650.585013697746, -12873.196646356184, -0.12, 0.97, 0.23800000000000002, 192.0, 0.0, 0.0, 0.0, 0.0, 0.0, 0.0, 0.0, 0.0, 0.0, 1.6814212313105185E9, 0.0, 2023-04-13 17:27:11.310
8.0, -9666.39186935328, 8407.027531507914, -22156.457264001045, -10679.775259467991, 19265.10265649589, -47269.290360127736, -14681.922159424086, -12898.722338524145, -0.112, 0.976, 0.22, 192.0, 252.0, 128.0, 30.0, 128.0, 6.0, 224.0, 0.0, 0.0, 0.0, 1.6814212313105512E9, 0.0, 2023-04-13 17:27:11.310
9.0, -9695.046805744983, 8383.714662041028, -22140.989856837972, -11027.255478770194, 19115.278913411967, -47264.77530774776, -14672.489723263947, -12863.495989262581, -0.112, 0.976, 0.22, 192.0, 0.0, 0.0, 0.0, 0.0, 0.0, 0.0, 0.0, 0.0, 0.0, 1.6814212313105977E9, 0.0, 2023-04-13 17:27:11.310
10.0, -9691.448174887679, 8384.2287521635, -22120.538010661367, -11163.69052692539, 18866.146369713115, -47232.87936841004, -14645.958202595497, -12830.370703979816, -0.112, 0.976, 0.22, 192.0, 0.0, 0.0, 0.0, 0.0, 0.0, 0.0, 0.0, 0.0, 0.0, 1.6814212313106184E9, 0.0, 2023-04-13 17:27:11.310
11.0, -9660.133380905794, 8417.801072335371, -22100.913179029605, -10740.594356130881, 19023.547354167385, -47218.14956881399, -14643.164234538584, -12860.925538650221, -0.112, 0.976, 0.22, 192.0, 0.0, 0.0, 0.0, 0.0, 0.0, 0.0, 0.0, 0.0, 0.0, 1.681421231310638E9, 0.0, 2023-04-13 17:27:11.310
12.0, -9654.657203514244, 8426.00416255047, -22119.152202505138, -10622.57714540686, 19275.317403711964, -47245.46340053838, -14670.165141840595, -12889.178143641728, -0.112, 0.976, 0.22, 192.0, 0.0, 0.0, 0.0, 0.0, 0.0, 0.0, 0.0, 0.0, 0.0, 1.6814212313106575E9, 0.0, 2023-04-13 17:27:11.310
13.0, -9685.770831796031, 8409.776796075916, -22135.80425212434, -10951.728934255712, 19175.963899608123, -47254.42645006495, -14673.227330830972, -12870.380326554816, -0.112, 0.976, 0.22, 192.0, 0.0, 0.0, 0.0, 0.0, 0.0, 0.0, 0.0, 0.0, 0.0, 1.681421231310677E9, 0.0, 2023-04-13 17:27:11.310
14.0, -9688.29657891948, 8409.575630375819, -22130.931571833084, -11184.857628924565, 18891.31443396979, -47234.10871435508, -14649.735647408444, -12841.032486084996, -0.112, 0.976, 0.22, 192.0, 0.0, 0.0, 0.0, 0.0, 0.0, 0.0, 0.0, 0.0, 0.0, 1.6814212313106964E9, 0.0, 2023-04-13 17:27:11.310
15.0, -9652.802008724453, 8428.485206185009, -22081.13188518666, -10816.478528556649, 18965.254004627946, -47206.28079250822, -14632.256583244394, -12844.049971586463, -0.112, 0.976, 0.22, 192.0, 0.0, 0.0, 0.0, 0.0, 0.0, 0.0, 0.0, 0.0, 0.0, 1.6814212313107154E9, 0.0, 2023-04-13 17:27:11.310
16.0, -9662.569721051423, 8414.113034500246, -22129.56811542131, -10608.316732444375, 19245.209603930667, -47245.7539732163, -14674.121400609185, -12892.530905310025, -0.112, 0.976, 0.22, 192.0, 0.0, 0.0, 0.0, 0.0, 0.0, 0.0, 0.0, 0.0, 0.0, 1.6814212313109121E9, 0.0, 2023-04-13 17:27:11.310
17.0, -9701.484108148112, 8383.044109707369, -22186.3862498267, -10916.524936738604, 19192.571245738418, -47277.26993289828, -14697.166049142606, -12893.335568110415, -0.112, 0.976, 0.22, 192.0, 0.0, 0.0, 0.0, 0.0, 0.0, 0.0, 0.0, 0.0, 0.0, 1.6814212313109322E9, 0.0, 2023-04-13 17:27:11.310
18.0, -9697.237276701604, 8395.069348224324, -22118.3698914492, -11192.45722203937, 18924.97616111948, -47235.650984722495, -14648.260432274394, -12832.49411970307, -0.11, 0.976, 0.20400000000000001, 192.0, 252.0, 144.0, 30.0, 128.0, 6.0, 96.0, 0.0, 0.0, 0.0, 1.6814212313109517E9, 0.0, 2023-04-13 17:27:11.310
19.0, -9664.648433285765, 8430.273345741432, -22084.104667199215, -10910.042930846565, 18910.78280339036, -47201.9892575728, -14627.406254697593, -12834.371666237315, -0.11, 0.976, 0.20400000000000001, 192.0, 0.0, 0.0, 0.0, 0.0, 0.0, 0.0, 0.0, 0.0, 0.0, 1.6814212313109722E9, 0.0, 2023-04-13 17:27:11.310
20.0, -9658.255834371548, 8422.316124715344, -22119.442775183055, -10608.450842911107, 19192.951225394158, -47232.70055445439, -14670.433362774058, -12887.322948851937, -0.11, 0.976, 0.20400000000000001, 192.0, 0.0, 0.0, 0.0, 0.0, 0.0, 0.0, 0.0, 0.0, 0.0, 1.6814212313109913E9, 0.0, 2023-04-13 17:27:11.310
21.0, -9687.558971352455, 8394.219981935023, -22159.6312117137, -10848.307412661006, 19216.04057741649, -47258.36035708909, -14691.444002562048, -12886.78650698501, -0.11, 0.976, 0.20400000000000001, 192.0, 0.0, 0.0, 0.0, 0.0, 0.0, 0.0, 0.0, 0.0, 0.0, 1.68142123131101E9, 0.0, 2023-04-13 17:27:11.311
22.0, -9703.942800038196, 8381.010100961936, -22160.033543113896, -11181.035480622708, 18953.027600410893, -47244.479923782346, -14667.594691228234, -12846.173387309718, -0.11, 0.976, 0.20400000000000001, 192.0, 0.0, 0.0, 0.0, 0.0, 0.0, 0.0, 0.0, 0.0, 0.0, 1.681421231311049E9, 0.0, 2023-04-13 17:27:11.311
23.0, -9660.111029161339, 8416.594078134785, -22100.600254607234, -11004.32258895905, 18867.06279123578, -47209.365333243055, -14630.289629732328, -12836.003343582553, -0.11, 0.976, 0.20400000000000001, 192.0, 0.0, 0.0, 0.0, 0.0, 0.0, 0.0, 0.0, 0.0, 0.0, 1.681421231311069E9, 0.0, 2023-04-13 17:27:11.311
24.0, -9650.455075556645, 8428.127578273723, -22117.09584201525, -10615.335180203341, 19166.866739614816, -47230.10775209758, -14658.050496345819, -12884.283111606015, -0.11, 0.976, 0.20400000000000001, 192.0, 0.0, 0.0, 0.0, 0.0, 0.0, 0.0, 0.0, 0.0, 0.0, 1.681421231311088E9, 0.0, 2023-04-13 17:27:11.311
25.0, -9679.467639859635, 8419.94683980308, -22152.501005232454, -10785.297845041496, 19251.557499355975, -47258.226246622355, -14680.558703012313, -12892.8438297324, -0.11, 0.976, 0.20400000000000001, 192.0, 0.0, 0.0, 0.0, 0.0, 0.0, 0.0, 0.0, 0.0, 0.0, 1.681421231311107E9, 0.0, 2023-04-13 17:27:11.311
26.0, -9706.44619541719, 8387.849734765261, -22153.57388896631, -11137.427227190403, 19007.834077815303, -47246.31276682768, -14669.874569162675, -12854.264718802538, -0.11, 0.976, 0.20400000000000001, 192.0, 0.0, 0.0, 0.0, 0.0, 0.0, 0.0, 0.0, 0.0, 0.0, 1.681421231311126E9, 0.0, 2023-04-13 17:27:11.311
27.0, -9700.657093603266, 8389.794336532872, -22122.504964173433, -11070.19317986884, 18843.057017690782, -47213.96979260085, -14640.951411837508, -12839.44551222867, -0.11, 0.976, 0.20400000000000001, 192.0, 0.0, 0.0, 0.0, 0.0, 0.0, 0.0, 0.0, 0.0, 0.0, 1.6814212313111453E9, 0.0, 2023-04-13 17:27:11.311
28.0, -9673.879703745808, 8415.23062172301, -22119.889810072164, -10636.0105438245, 19114.273084911478, -47224.22924330583, -14658.408124257103, -12882.852599960876, -0.108, 0.982, 0.192, 192.0, 252.0, 160.0, 30.0, 176.0, 6.0, 0.0, 0.0, 0.0, 0.0, 1.6814212313111644E9, 0.0, 2023-04-13 17:27:11.311
29.0, -9685.837887029396, 8399.696159326573, -22168.750723451463, -10729.664353092236, 19262.53220588353, -47266.09406067063, -14697.7695462429, -12906.277228150038, -0.108, 0.982, 0.192, 192.0, 0.0, 0.0, 0.0, 0.0, 0.0, 0.0, 0.0, 0.0, 0.0, 1.6814212313111844E9, 0.0, 2023-04-13 17:27:11.311
30.0, -9705.932105294718, 8375.288054381377, -22163.878043160206, -11086.107621921019, 19062.43938951962, -47254.44880180941, -14674.389621542648, -12863.339527051394, -0.108, 0.982, 0.192, 192.0, 0.0, 0.0, 0.0, 0.0, 0.0, 0.0, 0.0, 0.0, 0.0, 1.6814212313112037E9, 0.0, 2023-04-13 17:27:11.311
31.0, -9705.01568377205, 8375.958606715038, -22127.467051442512, -11132.420436432414, 18846.409779359077, -47222.91049038297, -14649.936813108543, -12839.221994784117, -0.108, 0.982, 0.192, 192.0, 0.0, 0.0, 0.0, 0.0, 0.0, 0.0, 0.0, 0.0, 0.0, 1.68142123131128E9, 0.0, 2023-04-13 17:27:11.311
32.0, -9672.538599078489, 8411.94491528808, -22101.159048218615, -10691.26405611802, 19061.768837185962, -47219.848301392594, -14661.783237669855, -12872.861370189354, -0.108, 0.982, 0.192, 192.0, 0.0, 0.0, 0.0, 0.0, 0.0, 0.0, 0.0, 0.0, 0.0, 1.6814212313113005E9, 0.0, 2023-04-13 17:27:11.311
33.0, -9677.277168903014, 8405.99935126297, -22149.349409264258, -10677.24951234454, 19266.846092563403, -47259.09796465612, -14688.940607183053, -12897.761213512566, -0.108, 0.982, 0.192, 192.0, 0.0, 0.0, 0.0, 0.0, 0.0, 0.0, 0.0, 0.0, 0.0, 1.681421231311319E9, 0.0, 2023-04-13 17:27:11.311
34.0, -9707.988465784605, 8370.75065025695, -22166.24732807247, -11024.528565946648, 19129.74049207455, -47259.902627456504, -14682.972691413486, -12867.698117220178, -0.108, 0.982, 0.192, 192.0, 0.0, 0.0, 0.0, 0.0, 0.0, 0.0, 0.0, 0.0, 0.0, 1.6814212313113384E9, 0.0, 2023-04-13 17:27:11.311
35.0, -9710.469509419145, 8377.053842193347, -22140.38635973768, -11176.475724753825, 18855.953974241493, -47223.64809795, -14655.636507944646, -12832.471767958614, -0.108, 0.982, 0.192, 192.0, 0.0, 0.0, 0.0, 0.0, 0.0, 0.0, 0.0, 0.0, 0.0, 1.6814212313113573E9, 0.0, 2023-04-13 17:27:11.311
36.0, -9670.39283161078, 8414.180089733612, -22110.7702983344, -10754.139513270798, 19006.671787103627, -47214.126254812036, -14664.42074351558, -12866.044088130486, -0.108, 0.982, 0.192, 192.0, 0.0, 0.0, 0.0, 0.0, 0.0, 0.0, 0.0, 0.0, 0.0, 1.681421231311376E9, 0.0, 2023-04-13 17:27:11.311
37.0, -9672.225674656114, 8417.935182802103, -22146.91306911863, -10636.34581999133, 19254.95496451318, -47254.22528436486, -14695.556723541824, -12904.869068249354, -0.108, 0.982, 0.192, 192.0, 0.0, 0.0, 0.0, 0.0, 0.0, 0.0, 0.0, 0.0, 0.0, 1.6814212313113952E9, 0.0, 2023-04-13 17:27:11.311
38.0, -9702.199363970682, 8390.241371421978, -22176.216206099536, -10957.428629091815, 19166.46440821462, -47263.36714784708, -14700.496459066448, -12884.774849984033, -0.108, 0.978, 0.184, 192.0, 252.0, 160.0, 30.0, 144.0, 5.0, 192.0, 0.0, 0.0, 0.0, 1.681421231311414E9, 0.0, 2023-04-13 17:27:11.311
39.0, -9712.525869909034, 8378.462002094031, -22139.872269615207, -11189.21621909335, 18889.101611268714, -47230.93476664243, -14659.928042880065, -12838.35027675036, -0.108, 0.978, 0.184, 192.0, 0.0, 0.0, 0.0, 0.0, 0.0, 0.0, 0.0, 0.0, 0.0, 1.681421231311434E9, 0.0, 2023-04-13 17:27:11.311
40.0, -9672.87387524532, 8416.728188601517, -22106.881094799173, -10832.370618864372, 18948.713713731016, -47207.91246985346, -14646.494644462426, -12854.130608335807, -0.108, 0.978, 0.184, 192.0, 0.0, 0.0, 0.0, 0.0, 0.0, 0.0, 0.0, 0.0, 0.0, 1.681421231311453E9, 0.0, 2023-04-13 17:27:11.311
41.0, -9661.183912895192, 8432.508520186964, -22145.19198479557, -10612.272991212963, 19227.395263599785, -47247.85503719509, -14696.763717742411, -12903.058576948473, -0.108, 0.978, 0.184, 192.0, 0.0, 0.0, 0.0, 0.0, 0.0, 0.0, 0.0, 0.0, 0.0, 1.681421231311472E9, 0.0, 2023-04-13 17:27:11.311
42.0, -9691.91756152124, 8399.562048859842, -22172.52816826441, -10904.58910519947, 19191.81128642694, -47268.55275256071, -14708.81130800382, -12894.766079755555, -0.108, 0.978, 0.184, 192.0, 0.0, 0.0, 0.0, 0.0, 0.0, 0.0, 0.0, 0.0, 0.0, 1.6814212313114915E9, 0.0, 2023-04-13 17:27:11.311
43.0, -9714.40341644328, 8384.429917863597, -22164.682705960597, -11202.180230877428, 18894.80130610482, -47246.558636016685, -14673.719069208988, -12854.220015313627, -0.108, 0.978, 0.184, 192.0, 0.0, 0.0, 0.0, 0.0, 0.0, 0.0, 0.0, 0.0, 0.0, 1.681421231311519E9, 0.0, 2023-04-13 17:27:11.311
44.0, -9679.15471543726, 8415.342380445289, -22114.771260591897, -10917.73193093919, 18885.994718789425, -47213.05337107818, -14656.910557378598, -12856.298727547972, -0.108, 0.978, 0.184, 192.0, 0.0, 0.0, 0.0, 0.0, 0.0, 0.0, 0.0, 0.0, 0.0, 1.681421231311538E9, 0.0, 2023-04-13 17:27:11.311
45.0, -9669.029375199007, 8439.57167143484, -22121.722653117497, -10597.766709061469, 19191.632472471294, -47236.03096437824, -14679.932854167564, -12899.728167024634, -0.108, 0.978, 0.184, 192.0, 0.0, 0.0, 0.0, 0.0, 0.0, 0.0, 0.0, 0.0, 0.0, 1.681421231311557E9, 0.0, 2023-04-13 17:27:11.311
46.0, -9696.432613901212, 8424.886575327704, -22159.653563458152, -10828.637877540335, 19229.272810134033, -47256.751031488304, -14687.219522859994, -12892.776774499032, -0.108, 0.978, 0.184, 192.0, 0.0, 0.0, 0.0, 0.0, 0.0, 0.0, 0.0, 0.0, 0.0, 1.6814212313115764E9, 0.0, 2023-04-13 17:27:11.311
47.0, -9714.246954232092, 8380.09367943927, -22158.491272746476, -11165.121038570529, 18965.388115094676, -47238.936691157425, -14664.063115604296, -12846.799236154466, -0.108, 0.978, 0.184, 192.0, 0.0, 0.0, 0.0, 0.0, 0.0, 0.0, 0.0, 0.0, 0.0, 1.681421231311617E9, 0.0, 2023-04-13 17:27:11.311
48.0, -9690.688215576198, 8395.42697613561, -22120.76152810592, -10997.773527833644, 18863.262994678378, -47204.38089422952, -14639.364437981181, -12837.702076161157, -0.10400000000000001, 0.978, 0.184, 192.0, 252.0, 192.0, 30.0, 144.0, 5.0, 192.0, 0.0, 0.0, 0.0, 1.6814212313116364E9, 0.0, 2023-04-13 17:27:11.311
49.0, -9666.4812763311, 8422.450235182076, -22131.95975207803, -10611.535383645938, 19149.49943417304, -47226.33030728463, -14668.04172611734, -12886.808858729466, -0.10400000000000001, 0.978, 0.184, 192.0, 0.0, 0.0, 0.0, 0.0, 0.0, 0.0, 0.0, 0.0, 0.0, 1.681421231311656E9, 0.0, 2023-04-13 17:27:11.311
50.0, -9685.6367213293, 8398.913848270637, -22162.246365814968, -10778.301749026985, 19241.52156609554, -47259.79086873423, -14696.249627619938, -12899.50464958008, -0.10400000000000001, 0.978, 0.184, 192.0, 0.0, 0.0, 0.0, 0.0, 0.0, 0.0, 0.0, 0.0, 0.0, 1.6814212313116753E9, 0.0, 2023-04-13 17:27:11.311
51.0, -9709.217811729648, 8373.61167354723, -22163.58747048229, -11133.515671910724, 19001.396775412177, -47247.09507788361, -14681.206903601516, -12860.210282827651, -0.10400000000000001, 0.978, 0.184, 192.0, 0.0, 0.0, 0.0, 0.0, 0.0, 0.0, 0.0, 0.0, 0.0, 1.6814212313116941E9, 0.0, 2023-04-13 17:27:11.311
52.0, -9694.82328830043, 8394.37644414621, -22127.310589231325, -11084.364185853505, 18829.40010182859, -47211.958135599874, -14645.131188050651, -12840.898375618264, -0.10400000000000001, 0.978, 0.184, 192.0, 0.0, 0.0, 0.0, 0.0, 0.0, 0.0, 0.0, 0.0, 0.0, 1.6814212313117132E9, 0.0, 2023-04-13 17:27:11.311
53.0, -9668.291767631981, 8420.080950269812, -22126.70709213103, -10654.674250444681, 19077.795037960415, -47221.12235082655, -14667.304118550315, -12885.668919762245, -0.10400000000000001, 0.978, 0.184, 192.0, 0.0, 0.0, 0.0, 0.0, 0.0, 0.0, 0.0, 0.0, 0.0, 1.6814212313117323E9, 0.0, 2023-04-13 17:27:11.311
54.0, -9689.905904520263, 8402.892458783681, -22174.04808688737, -10727.36212341334, 19238.168804427245, -47262.987168191336, -14708.543087070357, -12909.495879351602, -0.10400000000000001, 0.978, 0.184, 192.0, 0.0, 0.0, 0.0, 0.0, 0.0, 0.0, 0.0, 0.0, 0.0, 1.6814212313117511E9, 0.0, 2023-04-13 17:27:11.311
55.0, -9719.477262434633, 8373.924597969604, -22188.889645205694, -11091.069709190097, 19054.146892326702, -47263.16598214698, -14688.158296127118, -12875.923559179731, -0.10400000000000001, 0.978, 0.184, 192.0, 0.0, 0.0, 0.0, 0.0, 0.0, 0.0, 0.0, 0.0, 0.0, 1.6814212313117702E9, 0.0, 2023-04-13 17:27:11.311
56.0, -9704.658055860766, 8381.23361840649, -22135.13369979068, -11148.021954062218, 18832.30582860778, -47225.45858925088, -14649.13215030815, -12845.6816489317, -0.10400000000000001, 0.978, 0.184, 192.0, 0.0, 0.0, 0.0, 0.0, 0.0, 0.0, 0.0, 0.0, 0.0, 1.6814212313117893E9, 0.0, 2023-04-13 17:27:11.311
57.0, -9672.87387524532, 8411.47552865452, -22122.41555719561, -10708.206678415141, 19044.66975267765, -47225.3468305286, -14669.516941251391, -12887.747631996588, -0.10400000000000001, 0.978, 0.184, 192.0, 0.0, 0.0, 0.0, 0.0, 0.0, 0.0, 0.0, 0.0, 0.0, 1.6814212313118083E9, 0.0, 2023-04-13 17:27:11.311
58.0, -9684.20620968416, 8409.2850576979, -22170.449456030066, -10682.993910669555, 19259.022982004044, -47264.820011236676, -14703.692758523555, -12914.435614876225, -0.096, 0.982, 0.188, 192.0, 253.0, 0.0, 30.0, 176.0, 5.0, 224.0, 0.0, 0.0, 0.0, 1.6814212313118274E9, 0.0, 2023-04-13 17:27:11.311
59.0, -9710.357750696869, 8386.508630097942, -22172.349354308768, -11031.569365450068, 19111.97085523258, -47262.67424376896, -14688.582979271769, -12880.885646448809, -0.096, 0.982, 0.188, 192.0, 0.0, 0.0, 0.0, 0.0, 0.0, 0.0, 0.0, 0.0, 0.0, 1.6814212313118477E9, 0.0, 2023-04-13 17:27:11.311
60.0, -9709.821308829942, 8371.197685146057, -22143.359141750236, -11188.232742337315, 18843.057017690782, -47231.06887710916, -14661.447961503025, -12848.386210010793, -0.096, 0.982, 0.188, 192.0, 0.0, 0.0, 0.0, 0.0, 0.0, 0.0, 0.0, 0.0, 0.0, 1.6814212313118792E9, 0.0, 2023-04-13 17:27:11.311
61.0, -9682.507477105555, 8396.410452891643, -22130.84216485526, -10775.485429225617, 18975.89343498867, -47219.75889441477, -14662.006755114407, -12879.231617359117, -0.096, 0.982, 0.188, 192.0, 0.0, 0.0, 0.0, 0.0, 0.0, 0.0, 0.0, 0.0, 0.0, 1.6814212313118985E9, 0.0, 2023-04-13 17:27:11.311
62.0, -9681.188724182693, 8402.37836866121, -22166.80612168385, -10638.804511881413, 19251.62455458934, -47255.856961710095, -14703.044557934352, -12918.883612022832, -0.096, 0.982, 0.188, 192.0, 0.0, 0.0, 0.0, 0.0, 0.0, 0.0, 0.0, 0.0, 0.0, 1.6814212313119633E9, 0.0, 2023-04-13 17:27:11.311
63.0, -9698.556029624466, 8390.598999333262, -22176.640889244187, -10967.866893752444, 19155.623812153794, -47261.13197340155, -14688.337110082759, -12889.826344230933, -0.096, 0.982, 0.188, 192.0, 0.0, 0.0, 0.0, 0.0, 0.0, 0.0, 0.0, 0.0, 0.0, 1.6814212313119829E9, 0.0, 2023-04-13 17:27:11.311
64.0, -9706.468547161645, 8380.048975950358, -22142.286258016382, -11203.45428031138, 18866.906329024594, -47225.369182273054, -14646.964031095986, -12838.149111050263, -0.096, 0.982, 0.188, 192.0, 0.0, 0.0, 0.0, 0.0, 0.0, 0.0, 0.0, 0.0, 0.0, 1.6814212313120055E9, 0.0, 2023-04-13 17:27:11.312
65.0, -9685.547314351477, 8395.1811069466, -22116.29117921486, -10848.463874872194, 18930.27352455539, -47207.53249019772, -14648.193377041029, -12860.992593883586, -0.096, 0.982, 0.188, 192.0, 0.0, 0.0, 0.0, 0.0, 0.0, 0.0, 0.0, 0.0, 0.0, 1.6814212313120248E9, 0.0, 2023-04-13 17:27:11.312
66.0, -9681.859276516352, 8405.485261140497, -22150.601106953753, -10621.996000051022, 19217.26992336153, -47245.150476116, -14691.28754035086, -12906.009007216575, -0.096, 0.982, 0.188, 192.0, 0.0, 0.0, 0.0, 0.0, 0.0, 0.0, 0.0, 0.0, 0.0, 1.6814212313120437E9, 0.0, 2023-04-13 17:27:11.312
67.0, -9709.01664602955, 8394.08587146829, -22179.56896776783, -10909.685302935279, 19180.233082799088, -47265.19999089241, -14700.563514299813, -12896.621274545345, -0.096, 0.982, 0.188, 192.0, 0.0, 0.0, 0.0, 0.0, 0.0, 0.0, 0.0, 0.0, 0.0, 1.6814212313120627E9, 0.0, 2023-04-13 17:27:11.312
68.0, -9721.041884546505, 8378.171429416112, -22167.521377506422, -11206.36000709057, 18908.88290511166, -47243.51879877076, -14665.963013882998, -12852.767151924034, -0.10200000000000001, 0.986, 0.186, 192.0, 252.0, 208.0, 30.0, 208.0, 5.0, 208.0, 0.0, 0.0, 0.0, 1.6814212313120816E9, 0.0, 2023-04-13 17:27:11.312
69.0, -9688.967131253139, 8398.37740640371, -22128.115252031715, -10946.163349886341, 18884.407744933098, -47217.747237413794, -14656.105894578206, -12861.059649116953, -0.10200000000000001, 0.986, 0.186, 192.0, 0.0, 0.0, 0.0, 0.0, 0.0, 0.0, 0.0, 0.0, 0.0, 1.6814212313121016E9, 0.0, 2023-04-13 17:27:11.312
70.0, -9676.137229935794, 8416.28115371241, -22151.562231965334, -10624.611154152293, 19189.50905674804, -47247.69857498391, -14688.873551949688, -12910.7475770411, -0.10200000000000001, 0.986, 0.186, 192.0, 0.0, 0.0, 0.0, 0.0, 0.0, 0.0, 0.0, 0.0, 0.0, 1.681421231312121E9, 0.0, 2023-04-13 17:27:11.312
71.0, -9698.623084857833, 8397.460984881041, -22172.684630475596, -10854.297680175028, 19223.349597853376, -47267.92690371596, -14694.305025852327, -12902.008044959075, -0.10200000000000001, 0.986, 0.186, 192.0, 0.0, 0.0, 0.0, 0.0, 0.0, 0.0, 0.0, 0.0, 0.0, 1.6814212313121395E9, 0.0, 2023-04-13 17:27:11.312
72.0, -9722.427692702735, 8363.866312964716, -22174.87510143222, -11193.999492406785, 18965.209301139035, -47256.974548932856, -14677.027127388374, -12866.31230906395, -0.10200000000000001, 0.986, 0.186, 192.0, 0.0, 0.0, 0.0, 0.0, 0.0, 0.0, 0.0, 0.0, 0.0, 1.6814212313121588E9, 0.0, 2023-04-13 17:27:11.312
73.0, -9699.114823235848, 8380.808935261839, -22139.201717281547, -11042.8569964, 18858.39031438712, -47226.7996939182, -14657.223481800973, -12861.283166561505, -0.10200000000000001, 0.986, 0.186, 192.0, 0.0, 0.0, 0.0, 0.0, 0.0, 0.0, 0.0, 0.0, 0.0, 1.6814212313121777E9, 0.0, 2023-04-13 17:27:11.312
74.0, -9677.612445069844, 8404.345322173276, -22156.99370586797, -10650.494474231538, 19138.74824509004, -47245.59751100511, -14687.375985071181, -12909.875859007343, -0.10200000000000001, 0.986, 0.186, 192.0, 0.0, 0.0, 0.0, 0.0, 0.0, 0.0, 0.0, 0.0, 0.0, 1.6814212313121965E9, 0.0, 2023-04-13 17:27:11.312
75.0, -9702.802861070975, 8389.123784199213, -22186.788581226898, -10794.931446901734, 19254.887909279812, -47273.91717122998, -14708.833659748276, -12914.927353254243, -0.10200000000000001, 0.986, 0.186, 192.0, 0.0, 0.0, 0.0, 0.0, 0.0, 0.0, 0.0, 0.0, 0.0, 1.681421231312215E9, 0.0, 2023-04-13 17:27:11.312
76.0, -9729.78141662853, 8367.196722888557, -22193.315290607847, -11156.225044277317, 19027.302447235877, -47264.57414204766, -14690.393470572648, -12877.331719080415, -0.10200000000000001, 0.986, 0.186, 192.0, 0.0, 0.0, 0.0, 0.0, 0.0, 0.0, 0.0, 0.0, 0.0, 1.681421231312234E9, 0.0, 2023-04-13 17:27:11.312
77.0, -9711.385930941813, 8389.57081908832, -22132.630304411687, -11113.421453645404, 18850.120168938658, -47222.217586304854, -14657.625813201168, -12853.30359379096, -0.10200000000000001, 0.986, 0.186, 192.0, 0.0, 0.0, 0.0, 0.0, 0.0, 0.0, 0.0, 0.0, 0.0, 1.6814212313122528E9, 0.0, 2023-04-13 17:27:11.312
78.0, -9681.836924771897, 8414.403607178165, -22144.923763862105, -10682.546875780448, 19096.615206791783, -47235.27100506676, -14686.996005415442, -12901.873934492343, -0.108, 0.988, 0.184, 192.0, 252.0, 160.0, 30.0, 224.0, 5.0, 192.0, 0.0, 0.0, 0.0, 1.681421231312291E9, 0.0, 2023-04-13 17:27:11.312
79.0, -9697.594904612888, 8395.963418002537, -22192.063592918348, -10748.015135290043, 19255.983144758124, -47274.27479914127, -14716.634418563179, -12923.689237080722, -0.108, 0.988, 0.184, 192.0, 0.0, 0.0, 0.0, 0.0, 0.0, 0.0, 0.0, 0.0, 0.0, 1.6814212313123112E9, 0.0, 2023-04-13 17:27:11.312
80.0, -9718.739654867608, 8375.489220081476, -22188.82258997233, -11106.134784952974, 19071.33538381283, -47266.87637172656, -14698.261284620916, -12885.534809295514, -0.108, 0.988, 0.184, 192.0, 0.0, 0.0, 0.0, 0.0, 0.0, 0.0, 0.0, 0.0, 0.0, 1.6814212313123298E9, 0.0, 2023-04-13 17:27:11.312
81.0, -9707.83200357342, 8386.46392660903, -22158.44656925757, -11179.247341066282, 18822.38165406962, -47226.48676949582, -14658.85515914621, -12849.123817577818, -0.108, 0.988, 0.184, 192.0, 0.0, 0.0, 0.0, 0.0, 0.0, 0.0, 0.0, 0.0, 0.0, 1.6814212313123488E9, 0.0, 2023-04-13 17:27:11.312
82.0, -9673.566779323433, 8424.216022994045, -22135.558382935335, -10730.826643803912, 19026.47543269103, -47219.49067348131, -14664.912481893598, -12885.043070917496, -0.108, 0.988, 0.184, 192.0, 0.0, 0.0, 0.0, 0.0, 0.0, 0.0, 0.0, 0.0, 0.0, 1.6814212313123677E9, 0.0, 2023-04-13 17:27:11.312
83.0, -9681.702814305165, 8420.527985158918, -22169.980069396504, -10688.134811894275, 19251.937479011714, -47255.2534646098, -14703.871572479198, -12915.016760232063, -0.108, 0.988, 0.184, 192.0, 0.0, 0.0, 0.0, 0.0, 0.0, 0.0, 0.0, 0.0, 0.0, 1.6814212313123865E9, 0.0, 2023-04-13 17:27:11.312
84.0, -9719.231393245625, 8383.111164940736, -22196.53394180941, -11035.458568985292, 19137.273029955988, -47268.440993838434, -14702.999854445441, -12896.353053611881, -0.108, 0.988, 0.184, 192.0, 0.0, 0.0, 0.0, 0.0, 0.0, 0.0, 0.0, 0.0, 0.0, 1.681421231312405E9, 0.0, 2023-04-13 17:27:11.312
85.0, -9717.286791478014, 8378.350243371755, -22155.987877367483, -11219.88281248603, 18859.083218465235, -47235.718039955864, -14664.510150493403, -12854.801160669465, -0.108, 0.988, 0.184, 192.0, 0.0, 0.0, 0.0, 0.0, 0.0, 0.0, 0.0, 0.0, 0.0, 1.681421231312424E9, 0.0, 2023-04-13 17:27:11.312
86.0, -9681.34518639388, 8410.80497632086, -22131.89269684466, -10808.342493574917, 18969.500836074454, -47219.58008045913, -14664.845426660231, -12879.566893525945, -0.108, 0.988, 0.184, 192.0, 0.0, 0.0, 0.0, 0.0, 0.0, 0.0, 0.0, 0.0, 0.0, 1.681421231312446E9, 0.0, 2023-04-13 17:27:11.312
87.0, -9690.799974298474, 8406.535793129897, -22177.66906948913, -10660.753924936525, 19239.509909094562, -47260.66258676798, -14701.43523233357, -12920.18001320124, -0.108, 0.988, 0.184, 192.0, 0.0, 0.0, 0.0, 0.0, 0.0, 0.0, 0.0, 0.0, 0.0, 1.681421231312465E9, 0.0, 2023-04-13 17:27:11.312
88.0, -9717.487957178111, 8379.08785093878, -22198.54559881039, -10982.104954970475, 19164.36334423582, -47267.16694440448, -14706.397319602647, -12896.12953616733, -0.106, 0.988, 0.18, 192.0, 252.0, 176.0, 30.0, 224.0, 5.0, 160.0, 0.0, 0.0, 0.0, 1.6814212313124838E9, 0.0, 2023-04-13 17:27:11.312
89.0, -9720.706608379676, 8374.773964258906, -22167.2308048285, -11228.264716656771, 18888.140486257136, -47236.142723100515, -14675.082525620763, -12852.431875757204, -0.106, 0.988, 0.18, 192.0, 0.0, 0.0, 0.0, 0.0, 0.0, 0.0, 0.0, 0.0, 0.0, 1.6814212313125038E9, 0.0, 2023-04-13 17:27:11.312
90.0, -9687.849544030374, 8406.200516963067, -22130.48453694398, -10880.940959565754, 18936.062626369316, -47210.549975699185, -14657.201130056517, -12866.535826508501, -0.106, 0.988, 0.18, 192.0, 0.0, 0.0, 0.0, 0.0, 0.0, 0.0, 0.0, 0.0, 0.0, 1.6814212313125484E9, 0.0, 2023-04-13 17:27:11.312
91.0, -9681.568703838433, 8412.883688555205, -22163.81098792684, -10637.463407214094, 19222.969618197636, -47248.21266510638, -14709.10188068174, -12918.637742833824, -0.106, 0.988, 0.18, 192.0, 0.0, 0.0, 0.0, 0.0, 0.0, 0.0, 0.0, 0.0, 0.0, 1.6814212313125806E9, 0.0, 2023-04-13 17:27:11.312
92.0, -9704.881573305318, 8386.508630097942, -22188.934348694605, -10914.423872759804, 19207.36810056783, -47263.188333891434, -14712.275828394393, -12902.231562403627, -0.106, 0.988, 0.18, 192.0, 0.0, 0.0, 0.0, 0.0, 0.0, 0.0, 0.0, 0.0, 0.0, 1.6814212313126004E9, 0.0, 2023-04-13 17:27:11.312
93.0, -9717.39855020029, 8372.382327602189, -22170.315345563336, -11216.5971060511, 18937.60489673673, -47242.13299061453, -14677.47416227748, -12859.07034386043, -0.106, 0.988, 0.18, 192.0, 0.0, 0.0, 0.0, 0.0, 0.0, 0.0, 0.0, 0.0, 0.0, 1.6814212313126447E9, 0.0, 2023-04-13 17:27:11.312
94.0, -9689.369462653334, 8397.460984881041, -22131.95975207803, -10973.07485021053, 18887.425230434565, -47215.91439436846, -14649.981516597452, -12863.317175306938, -0.106, 0.988, 0.18, 192.0, 0.0, 0.0, 0.0, 0.0, 0.0, 0.0, 0.0, 0.0, 0.0, 1.6814212313126645E9, 0.0, 2023-04-13 17:27:11.312
95.0, -9681.121668949327, 8410.112072242746, -22161.24053731448, -10642.62666018327, 19179.495475232063, -47255.991072176825, -14704.050386434841, -12932.764045329577, -0.106, 0.988, 0.18, 192.0, 0.0, 0.0, 0.0, 0.0, 0.0, 0.0, 0.0, 0.0, 0.0, 1.681421231312683E9, 0.0, 2023-04-13 17:27:11.312
96.0, -9709.150756496281, 8388.90026675466, -22205.184066913615, -10868.62514837088, 19215.302969849465, -47291.440938882944, -14748.284488711894, -12941.794150089521, -0.106, 0.988, 0.18, 192.0, 0.0, 0.0, 0.0, 0.0, 0.0, 0.0, 0.0, 0.0, 0.0, 1.6814212313127022E9, 0.0, 2023-04-13 17:27:11.312
97.0, -9723.858204347875, 8376.98678695998, -22197.45036333208, -11209.422196080946, 18952.80408296634, -47269.78209850575, -14706.084395180273, -12889.044033174996, -0.106, 0.988, 0.18, 192.0, 0.0, 0.0, 0.0, 0.0, 0.0, 0.0, 0.0, 0.0, 0.0, 1.681421231312734E9, 0.0, 2023-04-13 17:27:11.312
98.0, -9704.367483182847, 8397.975075003515, -22165.57677573881, -11069.835551957554, 18852.06477070627, -47238.98139464634, -14672.936758153053, -12890.07221341994, -0.1, 0.992, 0.18, 192.0, 252.0, 224.0, 31.0, 0.0, 5.0, 160.0, 0.0, 0.0, 0.0, 1.6814212313127532E9, 0.0, 2023-04-13 17:27:11.312
99.0, -9681.926331749717, 8420.438578181098, -22168.23663332899, -10680.646977501749, 19127.482965884563, -47262.853057724606, -14704.586828301768, -12952.970022317175, -0.1, 0.992, 0.18, 192.0, 0.0, 0.0, 0.0, 0.0, 0.0, 0.0, 0.0, 0.0, 0.0, 1.6814212313127737E9, 0.0, 2023-04-13 17:27:11.312
100.0, -9698.176049968726, 8405.66407509614, -22199.14909591068, -10816.657342512292, 19236.33596138191, -47288.155232448014, -14721.10476745424, -12946.040981536029, -0.1, 0.992, 0.18, 192.0, 0.0, 0.0, 0.0, 0.0, 0.0, 0.0, 0.0, 0.0, 0.0, 1.6814212313127928E9, 0.0, 2023-04-13 17:27:11.312
101.0, -9719.92429732374, 8379.601941061252, -22200.35609011127, -11176.945111387386, 19021.33453146631, -47269.96091246139, -14700.071775921795, -12882.629082516323, -0.1, 0.992, 0.18, 192.0, 0.0, 0.0, 0.0, 0.0, 0.0, 0.0, 0.0, 0.0, 0.0, 1.681421231312812E9, 0.0, 2023-04-13 17:27:11.312
102.0, -9706.915582050751, 8385.748670786461, -22163.743932693476, -11160.740096657288, 18819.855906946173, -47232.27587130974, -14673.294386064337, -12869.843884687887, -0.1, 0.992, 0.18, 192.0, 0.0, 0.0, 0.0, 0.0, 0.0, 0.0, 0.0, 0.0, 0.0, 1.6814212313128307E9, 0.0, 2023-04-13 17:27:11.312
103.0, -9682.73099455011, 8409.352112931265, -22166.87317691722, -10726.959792013144, 19062.215872075067, -47238.55671150169, -14694.90852295262, -12914.301504409494, -0.1, 0.992, 0.18, 192.0, 0.0, 0.0, 0.0, 0.0, 0.0, 0.0, 0.0, 0.0, 0.0, 1.6814212313128495E9, 0.0, 2023-04-13 17:27:11.312
104.0, -9697.706663335164, 8398.623275592718, -22203.127706423726, -10777.877065882334, 19240.359275383864, -47267.61397929359, -14722.870555266209, -12926.885536537831, -0.1, 0.992, 0.18, 192.0, 0.0, 0.0, 0.0, 0.0, 0.0, 0.0, 0.0, 0.0, 0.0, 1.6814212313128686E9, 0.0, 2023-04-13 17:27:11.312
105.0, -9724.618163659354, 8372.203513646546, -22212.806011772875, -11144.87035809402, 19060.20421507409, -47262.49542981332, -14705.927932969087, -12894.676672777734, -0.1, 0.992, 0.18, 192.0, 0.0, 0.0, 0.0, 0.0, 0.0, 0.0, 0.0, 0.0, 0.0, 1.6814212313128874E9, 0.0, 2023-04-13 17:27:11.312
106.0, -9715.878631577329, 8369.99069094547, -22179.948947423574, -11232.55625159219, 18805.036700372304, -47226.978507873835, -14670.947452896531, -12858.64566071578, -0.1, 0.992, 0.18, 192.0, 0.0, 0.0, 0.0, 0.0, 0.0, 0.0, 0.0, 0.0, 0.0, 1.6814212313129065E9, 0.0, 2023-04-13 17:27:11.312
107.0, -9687.134288207804, 8400.32200817132, -22172.349354308768, -10789.27645555454, 18995.13828696469, -47221.882310138026, -14681.47512453498, -12890.005158186575, -0.1, 0.992, 0.18, 192.0, 0.0, 0.0, 0.0, 0.0, 0.0, 0.0, 0.0, 0.0, 0.0, 1.6814212313129292E9, 0.0, 2023-04-13 17:27:11.312
108.0, -9699.383044169314, 8397.729205814507, -22217.544581597398, -10742.270736965029, 19226.300028121477, -47268.17277290497, -14725.530412856391, -12933.36754242987, -0.098, 0.974, 0.184, 192.0, 252.0, 240.0, 30.0, 112.0, 5.0, 192.0, 0.0, 0.0, 0.0, 1.6814212313129485E9, 0.0, 2023-04-13 17:27:11.312
109.0, -9728.5967741724, 8370.70594676804, -22234.26368644997, -11092.85784874652, 19103.097212683824, -47275.81706950868, -14726.022151234407, -12911.529888097035, -0.098, 0.974, 0.184, 192.0, 0.0, 0.0, 0.0, 0.0, 0.0, 0.0, 0.0, 0.0, 0.0, 1.681421231312988E9, 0.0, 2023-04-13 17:27:11.312
110.0, -9724.171128770247, 8374.66220553663, -22205.787564013906, -11277.103278291617, 18816.3913865556, -47238.243787079315, -14688.80649671632, -12869.173332354228, -0.098, 0.974, 0.184, 192.0, 0.0, 0.0, 0.0, 0.0, 0.0, 0.0, 0.0, 0.0, 0.0, 1.681421231313007E9, 0.0, 2023-04-13 17:27:11.313
111.0, -9691.559933609955, 8402.780700061405, -22175.880929932708, -10874.995395540644, 18918.941190116548, -47225.1456648285, -14686.459563548515, -12899.571704813447, -0.098, 0.974, 0.184, 192.0, 0.0, 0.0, 0.0, 0.0, 0.0, 0.0, 0.0, 0.0, 0.0, 1.681421231313026E9, 0.0, 2023-04-13 17:27:11.313
112.0, -9687.648378330276, 8408.033360008403, -22197.405659843167, -10706.910277236733, 19200.03672838649, -47252.9512349309, -14719.741311042466, -12933.300487196504, -0.098, 0.974, 0.184, 192.0, 0.0, 0.0, 0.0, 0.0, 0.0, 0.0, 0.0, 0.0, 0.0, 1.6814212313130453E9, 0.0, 2023-04-13 17:27:11.313
113.0, -9723.187652014214, 8370.41537409012, -22234.196631216604, -11031.591717194524, 19142.905669558724, -47270.27383688377, -14720.031883720385, -12912.066329963962, -0.098, 0.974, 0.184, 192.0, 0.0, 0.0, 0.0, 0.0, 0.0, 0.0, 0.0, 0.0, 0.0, 1.681421231313064E9, 0.0, 2023-04-13 17:27:11.313
114.0, -9732.709495152176, 8358.300728595344, -22193.739973752497, -11291.341339509647, 18849.40491311609, -47235.718039955864, -14679.463467534002, -12862.892492162287, -0.098, 0.974, 0.184, 192.0, 0.0, 0.0, 0.0, 0.0, 0.0, 0.0, 0.0, 0.0, 0.0, 1.6814212313130832E9, 0.0, 2023-04-13 17:27:11.313
115.0, -9709.396625685291, 8381.367728873221, -22170.248290329968, -10951.930099955809, 18883.424268177067, -47212.941612355906, -14670.790990685344, -12884.685443006212, -0.098, 0.974, 0.184, 192.0, 0.0, 0.0, 0.0, 0.0, 0.0, 0.0, 0.0, 0.0, 0.0, 1.681421231313102E9, 0.0, 2023-04-13 17:27:11.313
116.0, -9703.562820382454, 8389.392005132677, -22204.781735513418, -10698.30485562144, 19182.490608989076, -47249.93374942944, -14709.660674293124, -12930.193594717217, -0.098, 0.974, 0.184, 192.0, 0.0, 0.0, 0.0, 0.0, 0.0, 0.0, 0.0, 0.0, 0.0, 1.6814212313131213E9, 0.0, 2023-04-13 17:27:11.313
117.0, -9731.904832351784, 8366.280301365889, -22230.3968346592, -10971.93491124331, 19178.109667075834, -47270.72087177287, -14719.741311042466, -12919.420053889758, -0.098, 0.974, 0.184, 192.0, 0.0, 0.0, 0.0, 0.0, 0.0, 0.0, 0.0, 0.0, 0.0, 1.68142123131314E9, 0.0, 2023-04-13 17:27:11.313
118.0, -9742.320745267958, 8360.513551296419, -22217.231657175023, -11285.418127228992, 18887.671099623574, -47245.82102844966, -14686.079583892773, -12873.062535889452, -0.10200000000000001, 0.972, 0.19, 192.0, 252.0, 208.0, 30.0, 96.0, 5.0, 240.0, 0.0, 0.0, 0.0, 1.6814212313131588E9, 0.0, 2023-04-13 17:27:11.313
119.0, -9713.35288445388, 8378.104374182747, -22179.59131951229, -11048.355525536004, 18828.97541868394, -47218.41778974746, -14671.170970341083, -12877.97991966962, -0.10200000000000001, 0.972, 0.19, 192.0, 0.0, 0.0, 0.0, 0.0, 0.0, 0.0, 0.0, 0.0, 0.0, 1.6814212313131793E9, 0.0, 2023-04-13 17:27:11.313
120.0, -9696.142041223293, 8398.846793037272, -22200.33373836681, -10707.267905148019, 19126.65595133972, -47249.95610117389, -14713.169898172606, -12931.51234764008, -0.10200000000000001, 0.972, 0.19, 192.0, 0.0, 0.0, 0.0, 0.0, 0.0, 0.0, 0.0, 0.0, 0.0, 1.681421231313198E9, 0.0, 2023-04-13 17:27:11.313
121.0, -9724.439349703713, 8372.114106668723, -22242.846756320807, -10917.35195128345, 19181.618890955317, -47277.7616712763, -14734.180537960594, -12933.255783707595, -0.10200000000000001, 0.972, 0.19, 192.0, 0.0, 0.0, 0.0, 0.0, 0.0, 0.0, 0.0, 0.0, 0.0, 1.6814212317896059E9, 0.0, 2023-04-13 17:27:11.789
122.0, -9734.274117264047, 8357.406658817132, -22218.751575797985, -11256.830246070653, 18916.92953311557, -47249.419659306965, -14693.366252585203, -12874.291881834493, -0.10200000000000001, 0.972, 0.19, 192.0, 0.0, 0.0, 0.0, 0.0, 0.0, 0.0, 0.0, 0.0, 0.0, 1.68142123178984E9, 0.0, 2023-04-13 17:27:11.789
123.0, -9713.375236198335, 8379.601941061252, -22180.105409634758, -11117.377712413992, 18799.024081113825, -47215.646173434994, -14668.108781350707, -12867.11697186434, -0.10200000000000001, 0.972, 0.19, 192.0, 0.0, 0.0, 0.0, 0.0, 0.0, 0.0, 0.0, 0.0, 0.0, 1.6814212317898965E9, 0.0, 2023-04-13 17:27:11.789
124.0, -9694.488012133601, 8399.025606992915, -22203.19476165709, -10716.588582585882, 19079.91845368367, -47241.954176658895, -14709.928895226587, -12925.365617914871, -0.10200000000000001, 0.972, 0.19, 192.0, 0.0, 0.0, 0.0, 0.0, 0.0, 0.0, 0.0, 0.0, 0.0, 1.6814212317900696E9, 0.0, 2023-04-13 17:27:11.790
125.0, -9713.01760828705, 8385.815726019828, -22235.91771553966, -10856.175226709274, 19180.791876410472, -47272.35254911811, -14732.34769491526, -12932.853452307398, -0.10200000000000001, 0.972, 0.19, 192.0, 0.0, 0.0, 0.0, 0.0, 0.0, 0.0, 0.0, 0.0, 0.0, 1.681421231790106E9, 0.0, 2023-04-13 17:27:11.790
126.0, -9732.553032940988, 8364.425106576098, -22220.562067098865, -11206.6952832574, 18959.107274902737, -47256.57221753267, -14705.52560156889, -12890.854524475877, -0.10200000000000001, 0.972, 0.19, 192.0, 0.0, 0.0, 0.0, 0.0, 0.0, 0.0, 0.0, 0.0, 0.0, 1.6814212317901433E9, 0.0, 2023-04-13 17:27:11.790
127.0, -9723.724093881143, 8368.113144411223, -22187.01209867145, -11186.511658014257, 18773.386630223587, -47220.4965019818, -14674.881359920664, -12871.408506799758, -0.10200000000000001, 0.972, 0.19, 192.0, 0.0, 0.0, 0.0, 0.0, 0.0, 0.0, 0.0, 0.0, 0.0, 1.6814212317901795E9, 0.0, 2023-04-13 17:27:11.790
128.0, -9687.670730074731, 8398.913848270637, -22170.20358684106, -10750.853806835867, 19009.577513882818, -47218.931879869924, -14678.18941810005, -12902.07510019244, -0.112, 0.972, 0.2, 192.0, 252.0, 128.0, 30.0, 96.0, 6.0, 64.0, 0.0, 0.0, 0.0, 1.6814212317902248E9, 0.0, 2023-04-13 17:27:11.790
129.0, -9701.417052914745, 8384.988711474982, -22212.135459439214, -10786.281321797529, 19195.8793039178, -47255.63344426554, -14709.906543482131, -12928.584269116434, -0.112, 0.972, 0.2, 192.0, 0.0, 0.0, 0.0, 0.0, 0.0, 0.0, 0.0, 0.0, 0.0, 1.6814212317902615E9, 0.0, 2023-04-13 17:27:11.790
130.0, -9732.374218985346, 8358.524246039897, -22229.748634069998, -11154.571015187623, 19021.289827977398, -47260.66258676798, -14710.264171393415, -12904.6455508048, -0.112, 0.972, 0.2, 192.0, 0.0, 0.0, 0.0, 0.0, 0.0, 0.0, 0.0, 0.0, 0.0, 1.6814212317902932E9, 0.0, 2023-04-13 17:27:11.790
131.0, -9724.037018303516, 8365.341528098767, -22188.91199695015, -11247.375458166058, 18782.34967975017, -47222.77637991624, -14679.798743700832, -12870.223864343629, -0.112, 0.972, 0.2, 192.0, 0.0, 0.0, 0.0, 0.0, 0.0, 0.0, 0.0, 0.0, 0.0, 1.6814212317903285E9, 0.0, 2023-04-13 17:27:11.790
132.0, -9692.431651643712, 8394.354092401754, -22171.52233976392, -10807.068444140965, 18975.044068699368, -47217.76958915825, -14688.7170897385, -12905.874896749843, -0.112, 0.972, 0.2, 192.0, 0.0, 0.0, 0.0, 0.0, 0.0, 0.0, 0.0, 0.0, 0.0, 1.6814212317903624E9, 0.0, 2023-04-13 17:27:11.790
133.0, -9699.114823235848, 8387.827383020805, -22210.503782093976, -10749.646812635281, 19205.55760926695, -47256.1028308991, -14705.927932969087, -12933.7028185967, -0.112, 0.972, 0.2, 192.0, 0.0, 0.0, 0.0, 0.0, 0.0, 0.0, 0.0, 0.0, 0.0, 1.6814212317903965E9, 0.0, 2023-04-13 17:27:11.790
134.0, -9723.589983414411, 8369.163676400623, -22219.802107787385, -11085.839400987554, 19083.83000896335, -47256.52751404375, -14685.587845514758, -12901.516306581058, -0.112, 0.972, 0.2, 192.0, 0.0, 0.0, 0.0, 0.0, 0.0, 0.0, 0.0, 0.0, 0.0, 1.6814212317904303E9, 0.0, 2023-04-13 17:27:11.790
135.0, -9724.97579157064, 8362.525208297397, -22193.40469758567, -11277.840885858643, 18803.3379677937, -47228.96781313036, -14662.386734770149, -12867.385192797803, -0.112, 0.972, 0.2, 192.0, 0.0, 0.0, 0.0, 0.0, 0.0, 0.0, 0.0, 0.0, 0.0, 1.6814212317904625E9, 0.0, 2023-04-13 17:27:11.790
136.0, -9686.374328896323, 8394.219981935023, -22162.425179770613, -10878.616378142402, 18904.345500987234, -47215.512062968264, -14662.431438259058, -12894.095527421896, -0.112, 0.972, 0.2, 192.0, 0.0, 0.0, 0.0, 0.0, 0.0, 0.0, 0.0, 0.0, 0.0, 1.6814212317904928E9, 0.0, 2023-04-13 17:27:11.790
137.0, -9692.275189432525, 8388.542638843375, -22208.78269777092, -10699.44479458866, 19180.233082799088, -47252.146572130514, -14703.044557934352, -12930.238298206128, -0.112, 0.972, 0.2, 192.0, 0.0, 0.0, 0.0, 0.0, 0.0, 0.0, 0.0, 0.0, 0.0, 1.6814212317905328E9, 0.0, 2023-04-13 17:27:11.790
138.0, -9712.481166420122, 8367.107315910735, -22216.11406995226, -11006.535411660125, 19130.74632057504, -47258.49446755582, -14692.606293273724, -12902.231562403627, -0.114, 0.98, 0.21, 192.0, 252.0, 112.0, 30.0, 160.0, 6.0, 144.0, 0.0, 0.0, 0.0, 1.6814212317905667E9, 0.0, 2023-04-13 17:27:11.790
139.0, -9721.891250835806, 8357.294900094856, -22191.54950279588, -11269.391926454537, 18847.080331692738, -47231.314746298165, -14659.168083568584, -12862.937195651199, -0.114, 0.98, 0.21, 192.0, 0.0, 0.0, 0.0, 0.0, 0.0, 0.0, 0.0, 0.0, 0.0, 1.6814212317906425E9, 0.0, 2023-04-13 17:27:11.790
140.0, -9691.179953954215, 8387.492106853975, -22165.37561003871, -10937.982611415699, 18880.295023953324, -47204.135025040516, -14650.294441019827, -12865.820570685932, -0.114, 0.98, 0.21, 192.0, 0.0, 0.0, 0.0, 0.0, 0.0, 0.0, 0.0, 0.0, 0.0, 1.6814212317906775E9, 0.0, 2023-04-13 17:27:11.790
141.0, -9680.406413126757, 8403.674769839618, -22199.506723821967, -10670.789858196958, 19172.342917006365, -47237.66264172347, -14691.220485117494, -12909.384120629325, -0.114, 0.98, 0.21, 192.0, 0.0, 0.0, 0.0, 0.0, 0.0, 0.0, 0.0, 0.0, 0.0, 1.6814212317907062E9, 0.0, 2023-04-13 17:27:11.790
142.0, -9711.095358263894, 8378.1267259272, -22218.170430442147, -10934.473387536214, 19174.08635307388, -47261.802525735206, -14706.218505647006, -12901.672768792245, -0.114, 0.98, 0.21, 192.0, 0.0, 0.0, 0.0, 0.0, 0.0, 0.0, 0.0, 0.0, 0.0, 1.6814212317907357E9, 0.0, 2023-04-13 17:27:11.790
143.0, -9737.537471954522, 8349.22592034649, -22219.779756042928, -11257.41139142649, 18898.69050964004, -47251.87835119705, -14685.90076993713, -12866.64758523078, -0.114, 0.98, 0.21, 192.0, 0.0, 0.0, 0.0, 0.0, 0.0, 0.0, 0.0, 0.0, 0.0, 1.681421231790788E9, 0.0, 2023-04-13 17:27:11.790
144.0, -9708.614314629354, 8371.935292713082, -22173.62340374272, -11033.46926372877, 18841.693561279008, -47221.65879269347, -14663.124342337172, -12859.159750838251, -0.114, 0.98, 0.21, 192.0, 0.0, 0.0, 0.0, 0.0, 0.0, 0.0, 0.0, 0.0, 0.0, 1.6814212317908206E9, 0.0, 2023-04-13 17:27:11.790
145.0, -9692.29754117698, 8388.85556326575, -22184.374592825723, -10684.424422314694, 19129.36051241881, -47251.230150607844, -14701.390528844659, -12908.244181662105, -0.114, 0.98, 0.21, 192.0, 0.0, 0.0, 0.0, 0.0, 0.0, 0.0, 0.0, 0.0, 0.0, 1.6814212317908533E9, 0.0, 2023-04-13 17:27:11.790
146.0, -9716.884460077817, 8367.84492347776, -22224.898305523195, -10888.652311402835, 19193.688832961183, -47285.003636479814, -14726.178613445594, -12913.228620675638, -0.114, 0.98, 0.21, 192.0, 0.0, 0.0, 0.0, 0.0, 0.0, 0.0, 0.0, 0.0, 0.0, 1.6814212317908857E9, 0.0, 2023-04-13 17:27:11.790
147.0, -9726.987448571617, 8357.004327416937, -22204.357052368767, -11232.288030658727, 18942.052893883338, -47269.04449093872, -14696.00375843093, -12865.172370096729, -0.114, 0.98, 0.21, 192.0, 0.0, 0.0, 0.0, 0.0, 0.0, 0.0, 0.0, 0.0, 0.0, 1.681421231790916E9, 0.0, 2023-04-13 17:27:11.790
148.0, -9704.613352371854, 8376.696214282061, -22171.76820895293, -11111.923886766897, 18819.252409845878, -47239.92016791346, -14679.396412300637, -12854.711753691645, -0.11800000000000001, 0.972, 0.20800000000000002, 192.0, 252.0, 80.0, 30.0, 96.0, 6.0, 128.0, 0.0, 0.0, 0.0, 1.6814212317909515E9, 0.0, 2023-04-13 17:27:11.790
149.0, -9682.038090471995, 8399.964380260037, -22183.033488158406, -10701.858782989835, 19094.648253279716, -47257.28747335523, -14701.882267222676, -12897.537696068013, -0.11800000000000001, 0.972, 0.20800000000000002, 192.0, 0.0, 0.0, 0.0, 0.0, 0.0, 0.0, 0.0, 0.0, 0.0, 1.6814212317909904E9, 0.0, 2023-04-13 17:27:11.790
150.0, -9707.675541362232, 8379.445478850064, -22224.473622378544, -10829.442540340728, 19213.9842169266, -47295.10662497361, -14726.491537867969, -12908.445347362203, -0.11800000000000001, 0.972, 0.20800000000000002, 192.0, 0.0, 0.0, 0.0, 0.0, 0.0, 0.0, 0.0, 0.0, 0.0, 1.6814212317910285E9, 0.0, 2023-04-13 17:27:11.791
151.0, -9731.92718409624, 8354.880911693683, -22226.038244490417, -11194.759451718266, 19001.396775412177, -47289.831613282164, -14708.923066726098, -12870.894416677287, -0.11800000000000001, 0.972, 0.20800000000000002, 192.0, 0.0, 0.0, 0.0, 0.0, 0.0, 0.0, 0.0, 0.0, 0.0, 1.6814212317910595E9, 0.0, 2023-04-13 17:27:11.791
152.0, -9715.722169366141, 8367.733164755484, -22182.966432925037, -11195.519411029747, 18794.86665664514, -47251.54307503022, -14674.255511075917, -12837.076227316407, -0.11800000000000001, 0.972, 0.20800000000000002, 192.0, 0.0, 0.0, 0.0, 0.0, 0.0, 0.0, 0.0, 0.0, 0.0, 1.6814212317910905E9, 0.0, 2023-04-13 17:27:11.791
153.0, -9690.509401620557, 8391.940104000581, -22172.908147920152, -10751.434952191705, 19028.665903647652, -47260.1037931566, -14699.870610221698, -12887.322948851937, -0.11800000000000001, 0.972, 0.20800000000000002, 192.0, 0.0, 0.0, 0.0, 0.0, 0.0, 0.0, 0.0, 0.0, 0.0, 1.681421231791122E9, 0.0, 2023-04-13 17:27:11.791
154.0, -9710.87184081934, 8370.795353745862, -22234.174279472147, -10789.567028232459, 19216.75583323906, -47308.785892580265, -14748.351543945259, -12918.637742833824, -0.11800000000000001, 0.972, 0.20800000000000002, 192.0, 0.0, 0.0, 0.0, 0.0, 0.0, 0.0, 0.0, 0.0, 0.0, 1.681421231791154E9, 0.0, 2023-04-13 17:27:11.791
155.0, -9741.381972000834, 8340.531091753375, -22240.902154553194, -11148.379581973504, 19038.143043296703, -47306.08133150117, -14732.839433293277, -12886.853562218377, -0.11800000000000001, 0.972, 0.20800000000000002, 192.0, 0.0, 0.0, 0.0, 0.0, 0.0, 0.0, 0.0, 0.0, 0.0, 1.681421231791222E9, 0.0, 2023-04-13 17:27:11.791
156.0, -9740.487902222623, 8341.894548165148, -22195.05872667536, -11252.739876835332, 18794.598435711676, -47271.41377585099, -14677.652976233123, -12849.660259444745, -0.11800000000000001, 0.972, 0.20800000000000002, 192.0, 0.0, 0.0, 0.0, 0.0, 0.0, 0.0, 0.0, 0.0, 0.0, 1.6814212317912533E9, 0.0, 2023-04-13 17:27:11.791
157.0, -9703.831041315918, 8374.483391580987, -22170.270642074425, -10809.571839519958, 18976.273414644413, -47254.58291227614, -14676.33422331026, -12865.552349752468, -0.11800000000000001, 0.972, 0.20800000000000002, 192.0, 0.0, 0.0, 0.0, 0.0, 0.0, 0.0, 0.0, 0.0, 0.0, 1.6814212317912903E9, 0.0, 2023-04-13 17:27:11.791
158.0, -9733.06712306346, 8348.667126735107, -22218.662168820163, -10753.066629536943, 19207.41280405674, -47303.48852914436, -14723.071720966307, -12903.41620485976, -0.114, 0.972, 0.21, 192.0, 252.0, 112.0, 30.0, 96.0, 6.0, 144.0, 0.0, 0.0, 0.0, 1.6814212317913196E9, 0.0, 2023-04-13 17:27:11.791
159.0, -9772.160324115792, 8307.964600081992, -22231.134442226226, -11092.522572579692, 19078.86792169427, -47307.243622212845, -14719.428386620091, -12878.158733625261, -0.114, 0.972, 0.21, 192.0, 0.0, 0.0, 0.0, 0.0, 0.0, 0.0, 0.0, 0.0, 0.0, 1.6814212317913492E9, 0.0, 2023-04-13 17:27:11.791
160.0, -9784.096155654926, 8298.710977877496, -22204.87114249124, -11280.903074849019, 18799.605226469663, -47271.167906661976, -14667.415877272591, -12834.550480192958, -0.114, 0.972, 0.21, 192.0, 0.0, 0.0, 0.0, 0.0, 0.0, 0.0, 0.0, 0.0, 0.0, 1.6814212317913785E9, 0.0, 2023-04-13 17:27:11.791
161.0, -9780.27400735307, 8302.175498268069, -22185.3357178373, -10893.614398671914, 18911.1627830461, -47262.04839492421, -14673.272034319883, -12863.004250884564, -0.114, 0.972, 0.21, 192.0, 0.0, 0.0, 0.0, 0.0, 0.0, 0.0, 0.0, 0.0, 0.0, 1.6814212317914076E9, 0.0, 2023-04-13 17:27:11.791
162.0, -9799.585914562454, 8283.73530909244, -22226.954666013084, -10737.420408418227, 19176.41093449723, -47302.192127965944, -14710.66650279361, -12905.159640927273, -0.114, 0.972, 0.21, 192.0, 0.0, 0.0, 0.0, 0.0, 0.0, 0.0, 0.0, 0.0, 0.0, 1.6814212317914352E9, 0.0, 2023-04-13 17:27:11.791
163.0, -9851.911348332329, 8229.420570066044, -22260.906965840695, -11041.784112666144, 19105.287683640443, -47318.17362525149, -14716.656770307634, -12891.07804192043, -0.114, 0.972, 0.21, 192.0, 0.0, 0.0, 0.0, 0.0, 0.0, 0.0, 0.0, 0.0, 0.0, 1.6814212317914624E9, 0.0, 2023-04-13 17:27:11.791
164.0, -9883.42730801431, 8199.446880751477, -22248.345285456813, -11304.685330949465, 18821.01819765785, -47289.22811618187, -14695.28850260836, -12848.520320477524, -0.114, 0.972, 0.21, 192.0, 0.0, 0.0, 0.0, 0.0, 0.0, 0.0, 0.0, 0.0, 0.0, 1.6814212317914891E9, 0.0, 2023-04-13 17:27:11.791
165.0, -9868.697508418263, 8211.650933224075, -22206.97220647004, -10982.037899737108, 18849.673134049553, -47255.74520298782, -14673.38379304216, -12852.856558901854, -0.114, 0.972, 0.21, 192.0, 0.0, 0.0, 0.0, 0.0, 0.0, 0.0, 0.0, 0.0, 0.0, 1.6814212317915266E9, 0.0, 2023-04-13 17:27:11.791
166.0, -9878.822848656519, 8203.894877898083, -22240.946858042105, -10723.227050689107, 19149.186509750667, -47296.29126742975, -14722.848203521753, -12907.88655375082, -0.114, 0.972, 0.21, 192.0, 0.0, 0.0, 0.0, 0.0, 0.0, 0.0, 0.0, 0.0, 0.0, 1.6814212317915668E9, 0.0, 2023-04-13 17:27:11.791
167.0, -9910.361160082955, 8175.977549073405, -22260.906965840695, -10983.401356148883, 19160.831768611883, -47314.08325601617, -14736.862747295232, -12899.102318179885, -0.114, 0.972, 0.21, 192.0, 0.0, 0.0, 0.0, 0.0, 0.0, 0.0, 0.0, 0.0, 0.0, 1.681421231791608E9, 0.0, 2023-04-13 17:27:11.791
168.0, -9932.601145815986, 8148.6860690934745, -22247.987657545527, -11295.208191300415, 18887.3581752012, -47293.676113328474, -14705.48089807998, -12857.30455604846, -0.11, 0.974, 0.212, 192.0, 252.0, 144.0, 30.0, 112.0, 6.0, 160.0, 0.0, 0.0, 0.0, 1.6814212317916496E9, 0.0, 2023-04-13 17:27:11.791
169.0, -9913.758625240163, 8163.371165200611, -22236.700026595598, -11094.556581325125, 18817.2407528449, -47270.83263049515, -14685.967825170497, -12855.583471725402, -0.11, 0.974, 0.212, 192.0, 0.0, 0.0, 0.0, 0.0, 0.0, 0.0, 0.0, 0.0, 0.0, 1.6814212317916956E9, 0.0, 2023-04-13 17:27:11.791
170.0, -9881.750927180163, 8196.00471210536, -22215.331758896322, -10728.211489702642, 19111.25559941001, -47281.516764344786, -14703.312778867816, -12888.172315141239, -0.11, 0.974, 0.212, 192.0, 0.0, 0.0, 0.0, 0.0, 0.0, 0.0, 0.0, 0.0, 0.0, 1.6814212317917624E9, 0.0, 2023-04-13 17:27:11.791
171.0, -9910.29410484959, 8169.495543181365, -22263.589175175333, -10925.197413587262, 19171.001812339047, -47321.45933168642, -14734.58286936079, -12903.527963582035, -0.11, 0.974, 0.212, 192.0, 0.0, 0.0, 0.0, 0.0, 0.0, 0.0, 0.0, 0.0, 0.0, 1.681421231791788E9, 0.0, 2023-04-13 17:27:11.791
172.0, -9929.315439381056, 8147.9261097819945, -22263.2538990085, -11264.049859529718, 18917.13069881567, -47299.10758723111, -14714.421595862103, -12854.957622880653, -0.11, 0.974, 0.212, 192.0, 0.0, 0.0, 0.0, 0.0, 0.0, 0.0, 0.0, 0.0, 0.0, 1.681421231791808E9, 0.0, 2023-04-13 17:27:11.791
173.0, -9924.666276534352, 8154.430467418489, -22241.103320253293, -11179.962596888852, 18768.826874354705, -47278.722796287875, -14698.305988109827, -12853.817683913432, -0.11, 0.974, 0.212, 192.0, 0.0, 0.0, 0.0, 0.0, 0.0, 0.0, 0.0, 0.0, 0.0, 1.6814212317918272E9, 0.0, 2023-04-13 17:27:11.791
174.0, -9911.925782194827, 8174.569389172721, -22287.729059187062, -10784.783754919024, 19024.4414239456, -47303.823805311185, -14731.073645481307, -12902.07510019244, -0.11, 0.974, 0.212, 192.0, 0.0, 0.0, 0.0, 0.0, 0.0, 0.0, 0.0, 0.0, 0.0, 1.6814212317918465E9, 0.0, 2023-04-13 17:27:11.791
175.0, -9920.240631132201, 8162.119467511114, -22291.819428422383, -10881.097421776942, 19169.303079760444, -47327.82957885618, -14755.660564382144, -12910.457004363181, -0.11, 0.974, 0.212, 192.0, 0.0, 0.0, 0.0, 0.0, 0.0, 0.0, 0.0, 0.0, 0.0, 1.6814212317918656E9, 0.0, 2023-04-13 17:27:11.791
176.0, -9938.345544141, 8140.907662023028, -22282.4093440067, -11223.83907125462, 18968.651469785153, -47311.51280540381, -14728.86082278023, -12865.865274174843, -0.11, 0.974, 0.212, 192.0, 0.0, 0.0, 0.0, 0.0, 0.0, 0.0, 0.0, 0.0, 0.0, 1.681421231791885E9, 0.0, 2023-04-13 17:27:11.791
177.0, -9918.407788086866, 8159.750182598852, -22255.095512282314, -11262.485237417846, 18749.358504934135, -47281.67322655598, -14691.399299073137, -12841.63598318529, -0.11, 0.974, 0.212, 192.0, 0.0, 0.0, 0.0, 0.0, 0.0, 0.0, 0.0, 0.0, 0.0, 1.681421231791904E9, 0.0, 2023-04-13 17:27:11.791
178.0, -9875.939473621784, 8208.14170934459, -22233.548430627397, -10813.416339566273, 18980.47554260201, -47272.86663924058, -14697.43427007607, -12872.97312891163, -0.10200000000000001, 0.978, 0.212, 192.0, 252.0, 208.0, 30.0, 144.0, 6.0, 160.0, 0.0, 0.0, 0.0, 1.6814212317919228E9, 0.0, 2023-04-13 17:27:11.791
179.0, -9895.251380831169, 8191.556714958753, -22308.739698975052, -10810.354150575895, 19169.54894894945, -47311.0657705147, -14740.126101985707, -12908.132422939829, -0.10200000000000001, 0.978, 0.212, 192.0, 0.0, 0.0, 0.0, 0.0, 0.0, 0.0, 0.0, 0.0, 0.0, 1.6814212317919433E9, 0.0, 2023-04-13 17:27:11.791
180.0, -9893.485593019199, 8191.7131771699405, -22250.200480246604, -11148.334878484593, 19022.720339622538, -47290.70333131592, -14712.164069672117, -12860.612614227846, -0.10200000000000001, 0.978, 0.212, 192.0, 0.0, 0.0, 0.0, 0.0, 0.0, 0.0, 0.0, 0.0, 0.0, 1.6814212317919624E9, 0.0, 2023-04-13 17:27:11.791
181.0, -9885.148392337369, 8201.167965074535, -22254.044980292914, -11279.941949837441, 18765.71998187542, -47260.5061245568, -14684.47025829199, -12827.710846389635, -0.10200000000000001, 0.978, 0.212, 192.0, 0.0, 0.0, 0.0, 0.0, 0.0, 0.0, 0.0, 0.0, 0.0, 1.6814212317919812E9, 0.0, 2023-04-13 17:27:11.791
182.0, -9847.150426763348, 8236.01433468036, -22235.403625417188, -10855.728191820168, 18929.446510010544, -47255.02994716525, -14691.891037451154, -12864.92650090772, -0.10200000000000001, 0.978, 0.212, 192.0, 0.0, 0.0, 0.0, 0.0, 0.0, 0.0, 0.0, 0.0, 0.0, 1.6814212317920003E9, 0.0, 2023-04-13 17:27:11.792
183.0, -9844.647031384353, 8238.987116692915, -22261.130483285247, -10783.576760718437, 19168.56547219342, -47294.8160522957, -14727.653828579645, -12901.024568203042, -0.10200000000000001, 0.978, 0.212, 192.0, 0.0, 0.0, 0.0, 0.0, 0.0, 0.0, 0.0, 0.0, 0.0, 1.6814212317920191E9, 0.0, 2023-04-13 17:27:11.792
184.0, -9850.726705876197, 8236.416666080555, -22254.134387270737, -11100.524497094691, 19063.556976742384, -47282.18731667844, -14710.286523137871, -12853.013021113042, -0.10200000000000001, 0.978, 0.212, 192.0, 0.0, 0.0, 0.0, 0.0, 0.0, 0.0, 0.0, 0.0, 0.0, 1.681421231792038E9, 0.0, 2023-04-13 17:27:11.792
185.0, -9855.219406511713, 8230.113474144158, -22276.329669514857, -11326.38887481557, 18769.6315371551, -47267.256351382304, -14695.087336908262, -12833.321134247915, -0.10200000000000001, 0.978, 0.212, 192.0, 0.0, 0.0, 0.0, 0.0, 0.0, 0.0, 0.0, 0.0, 0.0, 1.681421231792076E9, 0.0, 2023-04-13 17:27:11.792
186.0, -9808.504260600123, 8273.29704443181, -22208.134497181716, -10920.995285629664, 18873.365983172178, -47232.74525794331, -14679.61992974519, -12842.820625641421, -0.10200000000000001, 0.978, 0.212, 192.0, 0.0, 0.0, 0.0, 0.0, 0.0, 0.0, 0.0, 0.0, 0.0, 1.6814212317920957E9, 0.0, 2023-04-13 17:27:11.792
187.0, -9798.46832733969, 8287.222181227467, -22251.653343636197, -10730.737236826091, 19164.542158191463, -47274.095985185624, -14718.042578463863, -12887.07707966293, -0.10200000000000001, 0.978, 0.212, 192.0, 0.0, 0.0, 0.0, 0.0, 0.0, 0.0, 0.0, 0.0, 0.0, 1.6814212317921145E9, 0.0, 2023-04-13 17:27:11.792
188.0, -9813.354589146924, 8276.78391656684, -22266.49490195452, -11037.939612619832, 19115.524782600973, -47287.55173534772, -14718.958999986531, -12869.888588176798, -0.10400000000000001, 0.974, 0.21, 192.0, 252.0, 192.0, 30.0, 112.0, 6.0, 144.0, 0.0, 0.0, 0.0, 1.681421231792133E9, 0.0, 2023-04-13 17:27:11.792
189.0, -9821.580031106476, 8267.195018195513, -22250.245183735515, -11321.918525924508, 18823.87922094813, -47270.38559560604, -14692.29336885135, -12836.048047071463, -0.10400000000000001, 0.974, 0.21, 192.0, 0.0, 0.0, 0.0, 0.0, 0.0, 0.0, 0.0, 0.0, 0.0, 1.6814212317921531E9, 0.0, 2023-04-13 17:27:11.792
190.0, -9809.241868167146, 8285.232875970945, -22300.22368433758, -11032.955173606299, 18804.500258505377, -47266.92107521547, -14703.938627712563, -12868.815704442943, -0.10400000000000001, 0.974, 0.21, 192.0, 0.0, 0.0, 0.0, 0.0, 0.0, 0.0, 0.0, 0.0, 0.0, 1.681421231792172E9, 0.0, 2023-04-13 17:27:11.792
191.0, -9774.663719494787, 8320.50392872142, -22290.54537898843, -10736.705152595658, 19116.240038423544, -47287.48468011435, -14728.592601846767, -12902.298617636994, -0.10400000000000001, 0.974, 0.21, 192.0, 0.0, 0.0, 0.0, 0.0, 0.0, 0.0, 0.0, 0.0, 0.0, 1.681421231792191E9, 0.0, 2023-04-13 17:27:11.792
192.0, -9769.321652569968, 8317.732312408962, -22232.229677704538, -10975.466486867248, 19151.51109117402, -47287.596438836634, -14718.91429649762, -12873.777791712022, -0.10400000000000001, 0.974, 0.21, 192.0, 0.0, 0.0, 0.0, 0.0, 0.0, 0.0, 0.0, 0.0, 0.0, 1.6814212317922132E9, 0.0, 2023-04-13 17:27:11.792
193.0, -9793.550943559521, 8288.272713216867, -22250.35694245779, -11313.290752564759, 18869.476779636952, -47275.30297938621, -14700.898790466643, -12840.473692473613, -0.10400000000000001, 0.974, 0.21, 192.0, 0.0, 0.0, 0.0, 0.0, 0.0, 0.0, 0.0, 0.0, 0.0, 1.6814212317922325E9, 0.0, 2023-04-13 17:27:11.792
194.0, -9768.248768836114, 8316.927649608571, -22234.44250040561, -11108.235848931772, 18778.23695877039, -47242.46826678137, -14679.821095445288, -12835.735122649088, -0.10400000000000001, 0.974, 0.21, 192.0, 0.0, 0.0, 0.0, 0.0, 0.0, 0.0, 0.0, 0.0, 0.0, 1.681421231792251E9, 0.0, 2023-04-13 17:27:11.792
195.0, -9752.133161083837, 8337.357144040721, -22271.92637585716, -10720.164861698731, 19052.716380681562, -47259.32148210067, -14718.355502886237, -12886.473582562636, -0.10400000000000001, 0.974, 0.21, 192.0, 0.0, 0.0, 0.0, 0.0, 0.0, 0.0, 0.0, 0.0, 0.0, 1.6814212317922704E9, 0.0, 2023-04-13 17:27:11.792
196.0, -9773.546132272022, 8321.30859152181, -22262.560994930387, -10920.704712951745, 19148.98534405057, -47295.21838369589, -14729.509023369435, -12890.631007031323, -0.10400000000000001, 0.974, 0.21, 192.0, 0.0, 0.0, 0.0, 0.0, 0.0, 0.0, 0.0, 0.0, 0.0, 1.6814212317922893E9, 0.0, 2023-04-13 17:27:11.792
197.0, -9800.055301196016, 8299.605047655708, -22318.641521768754, -11279.204342270416, 18893.54960841532, -47298.25822094181, -14720.322456398304, -12864.747686952078, -0.10400000000000001, 0.974, 0.21, 192.0, 0.0, 0.0, 0.0, 0.0, 0.0, 0.0, 0.0, 0.0, 0.0, 1.681421231792308E9, 0.0, 2023-04-13 17:27:11.792
198.0, -9728.730884639132, 8356.93727218357, -22177.5349590224, -11162.505884469258, 18772.29139474528, -47235.516874255765, -14661.157388825106, -12824.738064377078, -0.10400000000000001, 0.978, 0.21, 192.0, 252.0, 192.0, 30.0, 144.0, 6.0, 144.0, 0.0, 0.0, 0.0, 1.6814212317923477E9, 0.0, 2023-04-13 17:27:11.792
199.0, -9702.177012226226, 8390.554295844353, -22185.738049237498, -10748.618632390337, 19049.028342846435, -47242.423563292454, -14686.19134261505, -12863.719506707133, -0.10400000000000001, 0.978, 0.21, 192.0, 0.0, 0.0, 0.0, 0.0, 0.0, 0.0, 0.0, 0.0, 0.0, 1.6814212317923677E9, 0.0, 2023-04-13 17:27:11.792
200.0, -9725.087550292916, 8368.381365344687, -22266.74077114353, -10835.52221483257, 19184.926949134704, -47276.44291835343, -14721.417691876613, -12877.421126058236, -0.10400000000000001, 0.978, 0.21, 192.0, 0.0, 0.0, 0.0, 0.0, 0.0, 0.0, 0.0, 0.0, 0.0, 1.6814212317923868E9, 0.0, 2023-04-13 17:27:11.792
201.0, -9729.200271272692, 8361.36291758572, -22236.521212639957, -11204.035425667218, 18967.578586051295, -47273.44778459642, -14692.025147917886, -12833.54465169247, -0.10400000000000001, 0.978, 0.21, 192.0, 0.0, 0.0, 0.0, 0.0, 0.0, 0.0, 0.0, 0.0, 0.0, 1.6814212317924263E9, 0.0, 2023-04-13 17:27:11.792
202.0, -9736.464588220668, 8356.959623928025, -22238.555221385388, -11232.802120781198, 18753.94061254747, -47250.134915129536, -14675.462505276502, -12822.01115155353, -0.10400000000000001, 0.978, 0.21, 192.0, 0.0, 0.0, 0.0, 0.0, 0.0, 0.0, 0.0, 0.0, 0.0, 1.6814212317924457E9, 0.0, 2023-04-13 17:27:11.792
203.0, -9733.804730630485, 8370.460077579031, -22300.246036082037, -10832.460025842194, 18964.89637671666, -47273.11250842959, -14714.086319695274, -12872.459038789159, -0.10400000000000001, 0.978, 0.21, 192.0, 0.0, 0.0, 0.0, 0.0, 0.0, 0.0, 0.0, 0.0, 0.0, 1.6814212317924645E9, 0.0, 2023-04-13 17:27:11.792
204.0, -9707.519079151045, 8397.170412203122, -22256.88365183874, -10826.179185650253, 19189.732574192592, -47289.04930222622, -14721.462395365525, -12876.862332446854, -0.10400000000000001, 0.978, 0.21, 192.0, 0.0, 0.0, 0.0, 0.0, 0.0, 0.0, 0.0, 0.0, 0.0, 1.6814212317924848E9, 0.0, 2023-04-13 17:27:11.792
205.0, -9750.255614549591, 8357.406658817132, -22293.920492401183, -11152.894634353475, 19015.321912207834, -47275.6606072975, -14714.28748539537, -12843.088846574885, -0.10400000000000001, 0.978, 0.21, 192.0, 0.0, 0.0, 0.0, 0.0, 0.0, 0.0, 0.0, 0.0, 0.0, 1.681421231792504E9, 0.0, 2023-04-13 17:27:11.792
206.0, -9733.335343996923, 8360.93823444107, -22272.954556102104, -11286.982749340863, 18755.61699338162, -47247.29624358371, -14678.412935544604, -12806.029654267986, -0.10400000000000001, 0.978, 0.21, 192.0, 0.0, 0.0, 0.0, 0.0, 0.0, 0.0, 0.0, 0.0, 0.0, 1.6814212317925317E9, 0.0, 2023-04-13 17:27:11.792
207.0, -9661.34037510638, 8425.62418289473, -22140.94515334906, -10853.090685974443, 18950.88183294318, -47212.71809491135, -14655.122417822173, -12818.099596273853, -0.10400000000000001, 0.978, 0.21, 192.0, 0.0, 0.0, 0.0, 0.0, 0.0, 0.0, 0.0, 0.0, 0.0, 1.681421231792568E9, 0.0, 2023-04-13 17:27:11.792
208.0, -9686.642549829789, 8410.827328065316, -22201.78660175641, -10718.756701798047, 19203.52360052152, -47249.86669419607, -14700.407052088625, -12859.584433982902, -0.10200000000000001, 0.97, 0.214, 192.0, 252.0, 208.0, 30.0, 80.0, 6.0, 176.0, 0.0, 0.0, 0.0, 1.6814212317926047E9, 0.0, 2023-04-13 17:27:11.792
209.0, -9718.359675211868, 8375.422164848109, -22272.97690784656, -11079.357395095516, 19089.172075888167, -47268.06101418269, -14699.892961966154, -12835.466901715625, -0.10200000000000001, 0.97, 0.214, 192.0, 0.0, 0.0, 0.0, 0.0, 0.0, 0.0, 0.0, 0.0, 0.0, 1.6814212317926283E9, 0.0, 2023-04-13 17:27:11.792
210.0, -9724.104073536882, 8364.782734487384, -22306.683338485163, -11352.763933272832, 18793.927883378015, -47283.37195913458, -14681.452772790524, -12818.770148607511, -0.10200000000000001, 0.97, 0.214, 192.0, 0.0, 0.0, 0.0, 0.0, 0.0, 0.0, 0.0, 0.0, 0.0, 1.6814212317926486E9, 0.0, 2023-04-13 17:27:11.792
211.0, -9713.464643176156, 8383.3793858742, -22239.87397430825, -10990.777431819133, 18872.673079094064, -47264.28356936974, -14692.740403740456, -12845.748704165067, -0.10200000000000001, 0.97, 0.214, 192.0, 0.0, 0.0, 0.0, 0.0, 0.0, 0.0, 0.0, 0.0, 0.0, 1.681421231792668E9, 0.0, 2023-04-13 17:27:11.792
212.0, -9693.616294099844, 8398.399758148165, -22249.30641046839, -10708.363140626328, 19161.18939652317, -47253.57708377565, -14712.454642350036, -12863.965375896141, -0.10200000000000001, 0.97, 0.214, 192.0, 0.0, 0.0, 0.0, 0.0, 0.0, 0.0, 0.0, 0.0, 0.0, 1.6814212317926867E9, 0.0, 2023-04-13 17:27:11.792
213.0, -9710.670675119243, 8386.620388820218, -22266.181977532146, -11000.880420312933, 19122.1632507042, -47264.12710715856, -14709.660674293124, -12841.211300040639, -0.10200000000000001, 0.97, 0.214, 192.0, 0.0, 0.0, 0.0, 0.0, 0.0, 0.0, 0.0, 0.0, 0.0, 1.681421231792706E9, 0.0, 2023-04-13 17:27:11.792
214.0, -9728.730884639132, 8368.716641511517, -22296.334480802358, -11325.897136437552, 18825.622657015643, -47263.747127502815, -14695.28850260836, -12813.852764827343, -0.10200000000000001, 0.97, 0.214, 192.0, 0.0, 0.0, 0.0, 0.0, 0.0, 0.0, 0.0, 0.0, 0.0, 1.6814212317927296E9, 0.0, 2023-04-13 17:27:11.792
215.0, -9640.754418463042, 8443.952613348081, -22098.096859228237, -10976.204094434273, 18887.067602523282, -47194.613181902554, -14634.089426289729, -12788.036499981465, -0.10200000000000001, 0.97, 0.214, 192.0, 0.0, 0.0, 0.0, 0.0, 0.0, 0.0, 0.0, 0.0, 0.0, 1.6814212317927487E9, 0.0, 2023-04-13 17:27:11.792
216.0, -9663.687308274188, 8438.319973745343, -22179.09958113427, -10731.072512992921, 19176.634451941783, -47260.327310601155, -14692.248665362438, -12858.265681060038, -0.10200000000000001, 0.97, 0.214, 192.0, 0.0, 0.0, 0.0, 0.0, 0.0, 0.0, 0.0, 0.0, 0.0, 1.6814212317927935E9, 0.0, 2023-04-13 17:27:11.792
217.0, -9717.130329266827, 8391.51542085593, -22290.4112685217, -10971.107896698464, 19162.12816979029, -47286.30003765822, -14713.304008639338, -12852.92361413522, -0.10200000000000001, 0.97, 0.214, 192.0, 0.0, 0.0, 0.0, 0.0, 0.0, 0.0, 0.0, 0.0, 0.0, 1.6814212317928128E9, 0.0, 2023-04-13 17:27:11.792
218.0, -9744.6006232024, 8366.794391488362, -22295.70863195761, -11307.836926917664, 18892.521428170377, -47275.146517175024, -14694.86381946371, -12814.165689249718, -0.10200000000000001, 0.972, 0.212, 192.0, 252.0, 208.0, 30.0, 96.0, 6.0, 160.0, 0.0, 0.0, 0.0, 1.6814212317928352E9, 0.0, 2023-04-13 17:27:11.792
219.0, -9722.003009558084, 8383.982882974493, -22230.128613725738, -11147.887843595487, 18810.66933997504, -47250.82781920765, -14686.258397848416, -12821.877041086798, -0.10200000000000001, 0.972, 0.212, 192.0, 0.0, 0.0, 0.0, 0.0, 0.0, 0.0, 0.0, 0.0, 0.0, 1.6814212317928555E9, 0.0, 2023-04-13 17:27:11.792
220.0, -9667.10712517585, 8429.826310852326, -22197.606825543266, -10751.993745803089, 19113.44607036663, -47253.51002854229, -14710.890020238165, -12857.036335114997, -0.10200000000000001, 0.972, 0.212, 192.0, 0.0, 0.0, 0.0, 0.0, 0.0, 0.0, 0.0, 0.0, 0.0, 1.6814212317928743E9, 0.0, 2023-04-13 17:27:11.792
221.0, -9692.409299899256, 8405.775833818416, -22288.667832454186, -10964.558835573058, 19194.247626572567, -47302.92973553297, -14729.844299536266, -12868.16750385374, -0.10200000000000001, 0.972, 0.212, 192.0, 0.0, 0.0, 0.0, 0.0, 0.0, 0.0, 0.0, 0.0, 0.0, 1.6814212317928932E9, 0.0, 2023-04-13 17:27:11.792
222.0, -9694.912695278252, 8401.260781438445, -22222.5960758443, -11239.150016206506, 18961.99064993747, -47248.033851150736, -14679.418764045093, -12805.783785078978, -0.10200000000000001, 0.972, 0.212, 192.0, 0.0, 0.0, 0.0, 0.0, 0.0, 0.0, 0.0, 0.0, 0.0, 1.6814212317929125E9, 0.0, 2023-04-13 17:27:11.792
223.0, -9704.054558760472, 8408.14511873068, -22209.76617452695, -11152.87228260902, 18791.938578121495, -47217.09903682459, -14656.195301556028, -12790.763412805012, -0.10200000000000001, 0.972, 0.212, 192.0, 0.0, 0.0, 0.0, 0.0, 0.0, 0.0, 0.0, 0.0, 0.0, 1.6814212317929313E9, 0.0, 2023-04-13 17:27:11.792
224.0, -9660.222787883615, 8438.76700863445, -22188.10733414976, -10720.097806465365, 19070.262500078978, -47227.58200497413, -14679.396412300637, -12831.734160391588, -0.10200000000000001, 0.972, 0.212, 192.0, 0.0, 0.0, 0.0, 0.0, 0.0, 0.0, 0.0, 0.0, 0.0, 1.6814212317929504E9, 0.0, 2023-04-13 17:27:11.792
225.0, -9677.76890728103, 8421.511461914952, -22226.529982868433, -10851.414305140293, 19217.89577220628, -47272.12903167356, -14703.849220734743, -12847.469788488126, -0.10200000000000001, 0.972, 0.212, 192.0, 0.0, 0.0, 0.0, 0.0, 0.0, 0.0, 0.0, 0.0, 0.0, 1.6814212317929692E9, 0.0, 2023-04-13 17:27:11.792
226.0, -9688.229523686114, 8405.842889051783, -22190.230749873015, -11162.595291447078, 19026.3413222243, -47230.97947013134, -14669.226368573472, -12788.081203470374, -0.10200000000000001, 0.972, 0.212, 192.0, 0.0, 0.0, 0.0, 0.0, 0.0, 0.0, 0.0, 0.0, 0.0, 1.681421231792988E9, 0.0, 2023-04-13 17:27:11.792
227.0, -9696.63377960131, 8394.71172031304, -22230.30742768138, -11252.069324501674, 18797.414755513044, -47237.97556614585, -14660.375077769171, -12787.72357555909, -0.10200000000000001, 0.972, 0.212, 192.0, 0.0, 0.0, 0.0, 0.0, 0.0, 0.0, 0.0, 0.0, 0.0, 1.681421231793007E9, 0.0, 2023-04-13 17:27:11.793
228.0, -9670.750459522063, 8425.065389283347, -22187.99557542748, -10801.569915004959, 19024.754348367973, -47218.328382769636, -14667.482932505958, -12822.838166098378, -0.11, 0.97, 0.214, 192.0, 252.0, 144.0, 30.0, 80.0, 6.0, 176.0, 0.0, 0.0, 0.0, 1.6814212317930264E9, 0.0, 2023-04-13 17:27:11.793
229.0, -9716.437425188711, 8390.867220266726, -22304.336405317357, -10849.581462094959, 19190.537236992986, -47301.11924423209, -14733.86761353822, -12880.997405171085, -0.11, 0.97, 0.214, 192.0, 0.0, 0.0, 0.0, 0.0, 0.0, 0.0, 0.0, 0.0, 0.0, 1.6814212317930465E9, 0.0, 2023-04-13 17:27:11.793
230.0, -9688.162468452749, 8403.719473328529, -22225.43474739012, -11179.806134677665, 19068.027325633448, -47262.58483679114, -14695.020281674897, -12813.517488660515, -0.11, 0.97, 0.214, 192.0, 0.0, 0.0, 0.0, 0.0, 0.0, 0.0, 0.0, 0.0, 0.0, 1.6814212317930653E9, 0.0, 2023-04-13 17:27:11.793
231.0, -9698.958361024663, 8406.915772785636, -22199.596130799786, -11271.045955544228, 18818.939485423503, -47224.02807760573, -14652.574318954268, -12772.18911316265, -0.11, 0.97, 0.214, 192.0, 0.0, 0.0, 0.0, 0.0, 0.0, 0.0, 0.0, 0.0, 0.0, 1.681421231793102E9, 0.0, 2023-04-13 17:27:11.793
232.0, -9666.347165864368, 8425.691238128094, -22163.118083848727, -10849.71557256169, 18976.474580344508, -47225.525644484245, -14667.348822039226, -12818.054892784941, -0.11, 0.97, 0.214, 192.0, 0.0, 0.0, 0.0, 0.0, 0.0, 0.0, 0.0, 0.0, 0.0, 1.681421231793121E9, 0.0, 2023-04-13 17:27:11.793
233.0, -9647.14701737726, 8441.091590057802, -22200.467848833545, -10726.400998401761, 19241.029827717524, -47251.29720584121, -14695.556723541824, -12843.982916353098, -0.11, 0.97, 0.214, 192.0, 0.0, 0.0, 0.0, 0.0, 0.0, 0.0, 0.0, 0.0, 0.0, 1.68142123179314E9, 0.0, 2023-04-13 17:27:11.793
234.0, -9699.91948603624, 8401.57370586082, -22265.64553566522, -11085.928807965376, 19110.428584865163, -47267.21164789339, -14702.441060834059, -12824.134567276784, -0.11, 0.97, 0.214, 192.0, 0.0, 0.0, 0.0, 0.0, 0.0, 0.0, 0.0, 0.0, 0.0, 1.6814212317931724E9, 0.0, 2023-04-13 17:27:11.793
235.0, -9722.91943108075, 8376.070365437314, -22275.21208229209, -11315.347113054648, 18816.883124933618, -47258.583874533644, -14681.922159424086, -12801.380491421281, -0.11, 0.97, 0.214, 192.0, 0.0, 0.0, 0.0, 0.0, 0.0, 0.0, 0.0, 0.0, 0.0, 1.681421231793195E9, 0.0, 2023-04-13 17:27:11.793
236.0, -9682.06044221645, 8410.246182709478, -22188.44261031659, -10944.039934163087, 18889.97332930247, -47223.0446008497, -14664.890130149142, -12814.389206694272, -0.11, 0.97, 0.214, 192.0, 0.0, 0.0, 0.0, 0.0, 0.0, 0.0, 0.0, 0.0, 0.0, 1.681421231793214E9, 0.0, 2023-04-13 17:27:11.793
237.0, -9674.125572934816, 8418.963363047047, -22216.985787986017, -10730.826643803912, 19184.256396801044, -47257.801563477704, -14703.491592823459, -12855.985803125597, -0.11, 0.97, 0.214, 192.0, 0.0, 0.0, 0.0, 0.0, 0.0, 0.0, 0.0, 0.0, 0.0, 1.6814212317932332E9, 0.0, 2023-04-13 17:27:11.793
238.0, -9710.313047207957, 8392.029510978402, -22257.5542041724, -11064.873464688477, 19133.987323521058, -47302.79562506624, -14726.804462290344, -12847.02275359902, -0.11800000000000001, 0.978, 0.21, 192.0, 252.0, 80.0, 30.0, 144.0, 6.0, 144.0, 0.0, 0.0, 0.0, 1.6814212317932522E9, 0.0, 2023-04-13 17:27:11.793
239.0, -9726.383951471324, 8383.066461451825, -22241.729169098042, -11360.251767665359, 18829.914191951062, -47266.87637172656, -14683.57618851378, -12793.602084350836, -0.11800000000000001, 0.978, 0.21, 192.0, 0.0, 0.0, 0.0, 0.0, 0.0, 0.0, 0.0, 0.0, 0.0, 1.6814212317932727E9, 0.0, 2023-04-13 17:27:11.793
240.0, -9711.855317575373, 8381.41243236213, -22266.11492229878, -11040.867691143476, 18823.476889547932, -47251.05133665221, -14679.128191367174, -12823.329904476393, -0.11800000000000001, 0.978, 0.21, 192.0, 0.0, 0.0, 0.0, 0.0, 0.0, 0.0, 0.0, 0.0, 0.0, 1.6814212317932918E9, 0.0, 2023-04-13 17:27:11.793
241.0, -9665.05076468596, 8423.724284616028, -22234.777776572442, -10757.916958083744, 19139.73172184607, -47269.78209850575, -14685.09610713674, -12840.719561662623, -0.11800000000000001, 0.978, 0.21, 192.0, 0.0, 0.0, 0.0, 0.0, 0.0, 0.0, 0.0, 0.0, 0.0, 1.681421232270495E9, 0.0, 2023-04-13 17:27:12.270
242.0, -9677.00894796955, 8410.00031352047, -22173.981031654006, -10957.853312236466, 19189.79962942596, -47256.99690067732, -14685.47608679248, -12822.949924820654, -0.11800000000000001, 0.978, 0.21, 192.0, 0.0, 0.0, 0.0, 0.0, 0.0, 0.0, 0.0, 0.0, 0.0, 1.6814212322707198E9, 0.0, 2023-04-13 17:27:12.270
243.0, -9699.114823235848, 8391.448365622564, -22184.016964914437, -11319.660999734522, 18925.22203030849, -47259.79086873423, -14669.159313340106, -12793.892657028755, -0.11800000000000001, 0.978, 0.21, 192.0, 0.0, 0.0, 0.0, 0.0, 0.0, 0.0, 0.0, 0.0, 0.0, 1.6814212322707665E9, 0.0, 2023-04-13 17:27:12.270
244.0, -9696.3879104123, 8402.244258194478, -22191.68361326261, -11144.244509249273, 18823.38748257011, -47239.51783651327, -14653.267223032382, -12798.787689064466, -0.11800000000000001, 0.978, 0.21, 192.0, 0.0, 0.0, 0.0, 0.0, 0.0, 0.0, 0.0, 0.0, 0.0, 1.6814212322708123E9, 0.0, 2023-04-13 17:27:12.270
245.0, -9667.263587387037, 8425.110092772256, -22208.559180326367, -10741.376667186818, 19122.431471637665, -47248.83851395113, -14679.418764045093, -12840.607802940345, -0.11800000000000001, 0.978, 0.21, 192.0, 0.0, 0.0, 0.0, 0.0, 0.0, 0.0, 0.0, 0.0, 0.0, 1.681421232270851E9, 0.0, 2023-04-13 17:27:12.270
246.0, -9719.700779879187, 8376.785621259884, -22266.271384509968, -10940.217785861229, 19204.0823941329, -47310.84225307015, -14731.073645481307, -12872.391983555794, -0.11800000000000001, 0.978, 0.21, 192.0, 0.0, 0.0, 0.0, 0.0, 0.0, 0.0, 0.0, 0.0, 0.0, 1.6814212322708912E9, 0.0, 2023-04-13 17:27:12.270
247.0, -9718.314971722957, 8360.111219896224, -22248.68056162364, -11273.303481734214, 18972.250100642457, -47274.252447396815, -14710.040653948863, -12818.144299762762, -0.11800000000000001, 0.978, 0.21, 192.0, 0.0, 0.0, 0.0, 0.0, 0.0, 0.0, 0.0, 0.0, 0.0, 1.6814212322710676E9, 0.0, 2023-04-13 17:27:12.271
248.0, -9685.033224229006, 8395.494031368975, -22188.10733414976, -11234.389094637525, 18819.453575545976, -47249.844342451615, -14654.09423757723, -12793.825601795388, -0.122, 0.974, 0.198, 192.0, 252.0, 48.0, 30.0, 112.0, 6.0, 48.0, 0.0, 0.0, 0.0, 1.6814212322711165E9, 0.0, 2023-04-13 17:27:12.271
249.0, -9684.139154450793, 8405.395854162676, -22245.77483484445, -10826.38035135035, 19063.176997086644, -47270.92203747297, -14687.890075193654, -12854.935271136197, -0.122, 0.974, 0.198, 192.0, 0.0, 0.0, 0.0, 0.0, 0.0, 0.0, 0.0, 0.0, 0.0, 1.6814212322711573E9, 0.0, 2023-04-13 17:27:12.271
250.0, -9679.95937823765, 8410.134423987201, -22228.608695102776, -10878.281101975574, 19212.821926214925, -47271.793755506726, -14698.14952589864, -12843.200605297161, -0.122, 0.974, 0.198, 192.0, 0.0, 0.0, 0.0, 0.0, 0.0, 0.0, 0.0, 0.0, 0.0, 1.6814212322712004E9, 0.0, 2023-04-13 17:27:12.271
251.0, -9729.267326506058, 8379.065499194325, -22211.62136931674, -11205.510640801269, 19026.497784435487, -47261.84722922411, -14684.023223402886, -12809.807099080934, -0.122, 0.974, 0.198, 192.0, 0.0, 0.0, 0.0, 0.0, 0.0, 0.0, 0.0, 0.0, 0.0, 1.6814212322712407E9, 0.0, 2023-04-13 17:27:12.271
252.0, -9714.381064698824, 8387.961493487537, -22205.87697099173, -11262.529940906757, 18795.11252583415, -47237.953214401394, -14658.430476001558, -12787.500058114536, -0.122, 0.974, 0.198, 192.0, 0.0, 0.0, 0.0, 0.0, 0.0, 0.0, 0.0, 0.0, 0.0, 1.681421232271286E9, 0.0, 2023-04-13 17:27:12.271
253.0, -9668.24706414307, 8411.76610133244, -22177.3337933223, -10828.86139498489, 19007.56585688184, -47242.17769410345, -14679.99990940093, -12832.8293958699, -0.122, 0.974, 0.198, 192.0, 0.0, 0.0, 0.0, 0.0, 0.0, 0.0, 0.0, 0.0, 0.0, 1.6814212322713256E9, 0.0, 2023-04-13 17:27:12.271
254.0, -9699.472451147134, 8382.954702729548, -22270.4064572342, -10867.10522974792, 19201.46724003163, -47305.924869289986, -14727.877346024197, -12872.906073678265, -0.122, 0.974, 0.198, 192.0, 0.0, 0.0, 0.0, 0.0, 0.0, 0.0, 0.0, 0.0, 0.0, 1.6814212322713668E9, 0.0, 2023-04-13 17:27:12.271
255.0, -9717.957343811673, 8366.682632766084, -22280.017707349984, -11160.5836344461, 19063.53462499793, -47292.7149883169, -14712.476994094492, -12838.59614593937, -0.122, 0.974, 0.198, 192.0, 0.0, 0.0, 0.0, 0.0, 0.0, 0.0, 0.0, 0.0, 0.0, 1.6814212322714076E9, 0.0, 2023-04-13 17:27:12.271
0.0, -9701.484108148112, 8383.669958552118, -22175.635060743698, -11308.306313551226, 18813.709177220964, -47245.709269727384, -14653.04370558783, -12781.308624900417, -0.122, 0.974, 0.198, 192.0, 0.0, 0.0, 0.0, 0.0, 0.0, 0.0, 0.0, 0.0, 0.0, 1.681421232271476E9, 0.0, 2023-04-13 17:27:12.271
1.0, -9686.709605063154, 8397.192763947578, -22197.159790654157, -10910.020579102109, 18943.371646806198, -47240.546016758206, -14679.8657989342, -12829.54368943497, -0.122, 0.974, 0.198, 192.0, 0.0, 0.0, 0.0, 0.0, 0.0, 0.0, 0.0, 0.0, 0.0, 1.681421232271576E9, 0.0, 2023-04-13 17:27:12.271
2.0, -9694.935047022707, 8397.304522669856, -22287.058506853406, -10773.89845536929, 19186.536274735485, -47284.02015972378, -14726.268020423417, -12876.325890579927, -0.122, 0.976, 0.202, 192.0, 252.0, 48.0, 30.0, 128.0, 6.0, 80.0, 0.0, 0.0, 0.0, 1.6814212322716136E9, 0.0, 2023-04-13 17:27:12.271
3.0, -9704.92627679423, 8384.966359730526, -22205.407584358167, -11085.90645622092, 19127.415910651198, -47277.20287766491, -14701.569342800301, -12840.965430851631, -0.122, 0.976, 0.202, 192.0, 0.0, 0.0, 0.0, 0.0, 0.0, 0.0, 0.0, 0.0, 0.0, 1.6814212322716537E9, 0.0, 2023-04-13 17:27:12.271
4.0, -9717.06327403346, 8364.916844954116, -22216.359939141268, -11322.454967791435, 18836.127976909636, -47251.69953724141, -14661.38090626966, -12798.161840219718, -0.122, 0.976, 0.202, 192.0, 0.0, 0.0, 0.0, 0.0, 0.0, 0.0, 0.0, 0.0, 0.0, 1.6814212322716973E9, 0.0, 2023-04-13 17:27:12.271
5.0, -9708.279038462524, 8381.61359806223, -22261.197538518612, -10987.379966661927, 18872.874244794162, -47257.600397777605, -14687.95713042702, -12844.407599497748, -0.122, 0.976, 0.202, 192.0, 0.0, 0.0, 0.0, 0.0, 0.0, 0.0, 0.0, 0.0, 0.0, 1.6814212322717488E9, 0.0, 2023-04-13 17:27:12.271
6.0, -9684.161506195249, 8410.581458876308, -22240.45511966409, -10777.921769371243, 19169.057210571435, -47290.45746212691, -14719.763662786921, -12878.78458247001, -0.122, 0.976, 0.202, 192.0, 0.0, 0.0, 0.0, 0.0, 0.0, 0.0, 0.0, 0.0, 0.0, 1.6814212322718942E9, 0.0, 2023-04-13 17:27:12.271
7.0, -9695.851468545374, 8390.084909210791, -22220.986750243515, -11065.968700166786, 19137.29538170044, -47296.7159505744, -14708.43132834808, -12852.6330414573, -0.122, 0.976, 0.202, 192.0, 0.0, 0.0, 0.0, 0.0, 0.0, 0.0, 0.0, 0.0, 0.0, 1.6814212322719269E9, 0.0, 2023-04-13 17:27:12.271
8.0, -9729.356733483879, 8355.50676053843, -22256.347209971813, -11333.586136530177, 18857.16096844208, -47265.24469438133, -14687.130115882173, -12819.753625363544, -0.122, 0.976, 0.202, 192.0, 0.0, 0.0, 0.0, 0.0, 0.0, 0.0, 0.0, 0.0, 0.0, 1.6814212322719607E9, 0.0, 2023-04-13 17:27:12.271
9.0, -9708.033169273516, 8380.317196883821, -22268.864186866784, -11075.199970626829, 18814.53619176581, -47239.0484498797, -14682.503304779924, -12828.53786093448, -0.122, 0.976, 0.202, 192.0, 0.0, 0.0, 0.0, 0.0, 0.0, 0.0, 0.0, 0.0, 0.0, 1.6814212322719984E9, 0.0, 2023-04-13 17:27:12.271
10.0, -9676.494857847078, 8415.632953123208, -22179.233691601003, -10722.332980910896, 19139.4187974237, -47243.36233655958, -14694.305025852327, -12856.991631626086, -0.122, 0.976, 0.202, 192.0, 0.0, 0.0, 0.0, 0.0, 0.0, 0.0, 0.0, 0.0, 0.0, 1.6814212322720292E9, 0.0, 2023-04-13 17:27:12.272
11.0, -9709.329570451924, 8387.872086509715, -22238.801090574398, -10978.863952024454, 19190.13490559279, -47287.0599969697, -14712.834622005776, -12862.557215995457, -0.122, 0.976, 0.202, 192.0, 0.0, 0.0, 0.0, 0.0, 0.0, 0.0, 0.0, 0.0, 0.0, 1.6814212322720685E9, 0.0, 2023-04-13 17:27:12.272
12.0, -9723.813500858963, 8369.543656056363, -22223.40073864469, -11318.118729367105, 18915.49902147043, -47259.96968268987, -14679.95520591202, -12816.758491606533, -0.11800000000000001, 0.968, 0.202, 192.0, 252.0, 80.0, 30.0, 64.0, 6.0, 80.0, 0.0, 0.0, 0.0, 1.6814212322720993E9, 0.0, 2023-04-13 17:27:12.272
13.0, -9706.133270994815, 8383.669958552118, -22198.031508687916, -11136.801378345655, 18807.67420621803, -47222.41875200495, -14657.558757967801, -12808.644808369258, -0.11800000000000001, 0.968, 0.202, 192.0, 0.0, 0.0, 0.0, 0.0, 0.0, 0.0, 0.0, 0.0, 0.0, 1.681421232272133E9, 0.0, 2023-04-13 17:27:12.272
14.0, -9691.626988843322, 8393.147098201169, -22230.30742768138, -10761.783809874512, 19081.14779962871, -47249.59847326261, -14704.206848646028, -12865.64175673029, -0.11800000000000001, 0.968, 0.202, 192.0, 0.0, 0.0, 0.0, 0.0, 0.0, 0.0, 0.0, 0.0, 0.0, 1.681421232272165E9, 0.0, 2023-04-13 17:27:12.272
15.0, -9710.58126814142, 8373.812839247328, -22261.935146085638, -10921.330561796494, 19196.70631846265, -47281.226191666865, -14729.19609894706, -12871.49791377758, -0.11800000000000001, 0.968, 0.202, 192.0, 0.0, 0.0, 0.0, 0.0, 0.0, 0.0, 0.0, 0.0, 0.0, 1.6814212322721975E9, 0.0, 2023-04-13 17:27:12.272
16.0, -9733.603564930389, 8352.355164570232, -22263.298602497413, -11282.914731849996, 18964.449341827552, -47271.726700273364, -14696.249627619938, -12828.49315744557, -0.11800000000000001, 0.968, 0.202, 192.0, 0.0, 0.0, 0.0, 0.0, 0.0, 0.0, 0.0, 0.0, 0.0, 1.6814212322722273E9, 0.0, 2023-04-13 17:27:12.272
17.0, -9711.58709664191, 8377.2773596379, -22214.258875162468, -11229.315248646171, 18796.29716829028, -47231.96294688737, -14666.700621450022, -12809.091843258364, -0.11800000000000001, 0.968, 0.202, 192.0, 0.0, 0.0, 0.0, 0.0, 0.0, 0.0, 0.0, 0.0, 0.0, 1.681421232272271E9, 0.0, 2023-04-13 17:27:12.272
18.0, -9681.188724182693, 8402.981865761503, -22234.129575983236, -10817.439653568228, 19046.837871889817, -47242.8035429482, -14691.354595584226, -12854.622346713824, -0.11800000000000001, 0.968, 0.202, 192.0, 0.0, 0.0, 0.0, 0.0, 0.0, 0.0, 0.0, 0.0, 0.0, 1.6814212322723284E9, 0.0, 2023-04-13 17:27:12.272
19.0, -9701.573515125932, 8388.229714421, -22271.27817526796, -10864.19950296873, 19207.2339901011, -47267.92690371596, -14722.959962244031, -12873.330756822916, -0.11800000000000001, 0.968, 0.202, 192.0, 0.0, 0.0, 0.0, 0.0, 0.0, 0.0, 0.0, 0.0, 0.0, 1.6814212322723613E9, 0.0, 2023-04-13 17:27:12.272
20.0, -9726.383951471324, 8362.994594930959, -22260.147006529216, -11214.65250428349, 19020.351054710278, -47260.97551119036, -14700.228238132982, -12830.817738868922, -0.11800000000000001, 0.968, 0.202, 192.0, 0.0, 0.0, 0.0, 0.0, 0.0, 0.0, 0.0, 0.0, 0.0, 1.681421232272396E9, 0.0, 2023-04-13 17:27:12.272
21.0, -9719.343151967902, 8365.60974903223, -22212.962473984062, -11280.411336471003, 18796.006595612358, -47224.22924330583, -14654.89890037762, -12795.949017518642, -0.11800000000000001, 0.968, 0.202, 192.0, 0.0, 0.0, 0.0, 0.0, 0.0, 0.0, 0.0, 0.0, 0.0, 1.6814212322725418E9, 0.0, 2023-04-13 17:27:12.272
22.0, -9691.06819523194, 8393.147098201169, -22221.523192110442, -10849.29088941704, 18990.57853109581, -47229.39249627501, -14668.511112750903, -12838.864366872833, -0.112, 0.968, 0.20400000000000001, 192.0, 252.0, 128.0, 30.0, 64.0, 6.0, 96.0, 0.0, 0.0, 0.0, 1.6814212322725923E9, 0.0, 2023-04-13 17:27:12.272
23.0, -9700.187706969704, 8387.268589409423, -22242.10914875378, -10823.116996659875, 19197.667443474227, -47262.51778155778, -14701.167011400106, -12864.725335207622, -0.112, 0.968, 0.20400000000000001, 192.0, 0.0, 0.0, 0.0, 0.0, 0.0, 0.0, 0.0, 0.0, 0.0, 1.6814212322726293E9, 0.0, 2023-04-13 17:27:12.272
24.0, -9731.189576529214, 8361.452324563543, -22269.98177408955, -11168.92083512793, 19060.271270307454, -47267.77044150477, -14696.450793320037, -12840.339582006882, -0.112, 0.968, 0.20400000000000001, 192.0, 0.0, 0.0, 0.0, 0.0, 0.0, 0.0, 0.0, 0.0, 0.0, 1.68142123227266E9, 0.0, 2023-04-13 17:27:12.272
25.0, -9726.92039333825, 8368.359013600233, -22239.78456733043, -11325.71832248191, 18804.656720716564, -47234.28752831072, -14664.554853982312, -12811.930514804188, -0.112, 0.968, 0.20400000000000001, 192.0, 0.0, 0.0, 0.0, 0.0, 0.0, 0.0, 0.0, 0.0, 0.0, 1.6814212322726932E9, 0.0, 2023-04-13 17:27:12.272
26.0, -9698.176049968726, 8387.916789998626, -22215.48822110751, -10924.236288575685, 18934.140376346157, -47227.93963288541, -14673.7637726979, -12844.899337875764, -0.112, 0.968, 0.20400000000000001, 192.0, 0.0, 0.0, 0.0, 0.0, 0.0, 0.0, 0.0, 0.0, 0.0, 1.6814212322727256E9, 0.0, 2023-04-13 17:27:12.272
27.0, -9695.15856446726, 8388.743804543472, -22250.401645946702, -10792.964493389665, 19184.770486923517, -47261.802525735206, -14710.420633604603, -12872.548445766979, -0.112, 0.968, 0.20400000000000001, 192.0, 0.0, 0.0, 0.0, 0.0, 0.0, 0.0, 0.0, 0.0, 0.0, 1.6814212322727585E9, 0.0, 2023-04-13 17:27:12.272
28.0, -9725.087550292916, 8359.172446629102, -22272.015782834984, -11110.091043721563, 19094.1565149017, -47270.11737467258, -14713.974560972996, -12850.934308878697, -0.112, 0.968, 0.20400000000000001, 192.0, 0.0, 0.0, 0.0, 0.0, 0.0, 0.0, 0.0, 0.0, 0.0, 1.6814212322727933E9, 0.0, 2023-04-13 17:27:12.272
29.0, -9731.524852696044, 8349.628251746684, -22248.63585813473, -11347.444218092469, 18818.000712156383, -47241.037755136225, -14678.368232055693, -12812.77988109349, -0.112, 0.968, 0.20400000000000001, 192.0, 0.0, 0.0, 0.0, 0.0, 0.0, 0.0, 0.0, 0.0, 0.0, 1.6814212322728257E9, 0.0, 2023-04-13 17:27:12.272
30.0, -9701.685273848208, 8381.367728873221, -22218.170430442147, -10998.980522034231, 18870.214387203978, -47220.07181883715, -14675.797781443332, -12835.533956948992, -0.112, 0.968, 0.20400000000000001, 192.0, 0.0, 0.0, 0.0, 0.0, 0.0, 0.0, 0.0, 0.0, 0.0, 1.681421232272858E9, 0.0, 2023-04-13 17:27:12.272
31.0, -9701.193535470193, 8388.006196976447, -22261.465759452076, -10765.047164564987, 19168.36430649332, -47257.533342544244, -14710.711206282522, -12875.096544634886, -0.112, 0.968, 0.20400000000000001, 192.0, 0.0, 0.0, 0.0, 0.0, 0.0, 0.0, 0.0, 0.0, 0.0, 1.6814212322728906E9, 0.0, 2023-04-13 17:27:12.272
32.0, -9724.886384592817, 8368.962510700525, -22277.581367204355, -11052.28943256014, 19133.048550253934, -47271.905514229, -14713.616933061712, -12860.478503761115, -0.10400000000000001, 0.972, 0.20800000000000002, 192.0, 252.0, 192.0, 30.0, 96.0, 6.0, 128.0, 0.0, 0.0, 0.0, 1.6814212322729232E9, 0.0, 2023-04-13 17:27:12.272
33.0, -9740.152626055793, 8357.563121028319, -22257.97888731705, -11345.656078536043, 18850.746017783407, -47244.92695867145, -14680.7151652235, -12818.948962563154, -0.10400000000000001, 0.972, 0.20800000000000002, 192.0, 0.0, 0.0, 0.0, 0.0, 0.0, 0.0, 0.0, 0.0, 0.0, 1.6814212322729578E9, 0.0, 2023-04-13 17:27:12.272
34.0, -9717.420901944746, 8376.003310203947, -22228.094604980302, -11083.805392242122, 18823.834517459218, -47218.86482463656, -14666.141827838639, -12826.01211381103, -0.10400000000000001, 0.972, 0.20800000000000002, 192.0, 0.0, 0.0, 0.0, 0.0, 0.0, 0.0, 0.0, 0.0, 0.0, 1.6814212322729905E9, 0.0, 2023-04-13 17:27:12.272
35.0, -9700.344169180891, 8395.270513924423, -22251.630991891743, -10760.263891251552, 19120.196297192135, -47251.49837154131, -14709.995950459952, -12881.22092261564, -0.10400000000000001, 0.972, 0.20800000000000002, 192.0, 0.0, 0.0, 0.0, 0.0, 0.0, 0.0, 0.0, 0.0, 0.0, 1.6814212322730215E9, 0.0, 2023-04-13 17:27:12.273
36.0, -9727.009800316073, 8370.571836301307, -22285.426829508167, -10986.195324205795, 19154.036838297467, -47272.59841830712, -14729.933706514086, -12881.936178438209, -0.10400000000000001, 0.972, 0.20800000000000002, 192.0, 0.0, 0.0, 0.0, 0.0, 0.0, 0.0, 0.0, 0.0, 0.0, 1.6814212322730525E9, 0.0, 2023-04-13 17:27:12.273
37.0, -9750.255614549591, 8343.727391210485, -22283.146951573726, -11322.253802091338, 18888.58752114624, -47256.88514195504, -14714.890982495665, -12840.518395962525, -0.10400000000000001, 0.972, 0.20800000000000002, 192.0, 0.0, 0.0, 0.0, 0.0, 0.0, 0.0, 0.0, 0.0, 0.0, 1.681421232273207E9, 0.0, 2023-04-13 17:27:12.273
38.0, -9730.094341050904, 8358.859522206727, -22259.208233262092, -11178.196809076884, 18768.648060399064, -47229.5489584862, -14693.00862467392, -12840.987782596087, -0.10400000000000001, 0.972, 0.20800000000000002, 192.0, 0.0, 0.0, 0.0, 0.0, 0.0, 0.0, 0.0, 0.0, 0.0, 1.68142123227324E9, 0.0, 2023-04-13 17:27:12.273
39.0, -9700.590038369899, 8391.71658655603, -22237.482337651534, -10775.217208292152, 19060.137159840724, -47236.23213007834, -14695.534371797368, -12877.599940013879, -0.10400000000000001, 0.972, 0.20800000000000002, 192.0, 0.0, 0.0, 0.0, 0.0, 0.0, 0.0, 0.0, 0.0, 0.0, 1.6814212322732728E9, 0.0, 2023-04-13 17:27:12.273
40.0, -9725.512233437566, 8369.186028145079, -22277.804884648907, -10918.603648972947, 19180.65776594374, -47267.681034526955, -14719.204869175539, -12885.937140695709, -0.10400000000000001, 0.972, 0.20800000000000002, 192.0, 0.0, 0.0, 0.0, 0.0, 0.0, 0.0, 0.0, 0.0, 0.0, 1.681421232273306E9, 0.0, 2023-04-13 17:27:12.273
41.0, -9748.981565115639, 8350.455266291532, -22278.140160815736, -11282.08771730515, 18947.819643952804, -47258.67328151146, -14695.132040397173, -12844.586413453391, -0.10400000000000001, 0.972, 0.20800000000000002, 192.0, 0.0, 0.0, 0.0, 0.0, 0.0, 0.0, 0.0, 0.0, 0.0, 1.6814212322733383E9, 0.0, 2023-04-13 17:27:12.273
42.0, -9733.78237888603, 8363.799257731349, -22242.980866787537, -11246.682554087944, 18747.905641544538, -47223.066952594156, -14665.583034227257, -12820.670046886213, -0.116, 0.978, 0.20400000000000001, 192.0, 252.0, 96.0, 30.0, 144.0, 6.0, 96.0, 0.0, 0.0, 0.0, 1.6814212322733707E9, 0.0, 2023-04-13 17:27:12.273
43.0, -9706.44619541719, 8384.765194030428, -22242.980866787537, -10813.796319222012, 18987.493990360974, -47235.941557400416, -14690.818153717299, -12867.094620119886, -0.116, 0.978, 0.20400000000000001, 192.0, 0.0, 0.0, 0.0, 0.0, 0.0, 0.0, 0.0, 0.0, 0.0, 1.6814212322734118E9, 0.0, 2023-04-13 17:27:12.273
44.0, -9725.713399137665, 8368.56017930033, -22277.536663715444, -10862.947805279233, 19171.89588211726, -47272.911342729494, -14714.823927262298, -12887.211190129661, -0.116, 0.978, 0.20400000000000001, 192.0, 0.0, 0.0, 0.0, 0.0, 0.0, 0.0, 0.0, 0.0, 0.0, 1.6814212322734451E9, 0.0, 2023-04-13 17:27:12.273
45.0, -9758.145780342315, 8339.1676353416, -22289.94188188814, -11228.421178867959, 18995.384156153697, -47278.05224395421, -14708.118403925706, -12857.103390348362, -0.116, 0.978, 0.20400000000000001, 192.0, 0.0, 0.0, 0.0, 0.0, 0.0, 0.0, 0.0, 0.0, 0.0, 1.6814212322734783E9, 0.0, 2023-04-13 17:27:12.273
46.0, -9748.69099243772, 8353.249234348445, -22256.59307916082, -11313.938953153964, 18749.492615400864, -47249.39730756251, -14679.485819278458, -12830.549517935458, -0.116, 0.978, 0.20400000000000001, 192.0, 0.0, 0.0, 0.0, 0.0, 0.0, 0.0, 0.0, 0.0, 0.0, 1.681421232273516E9, 0.0, 2023-04-13 17:27:12.273
47.0, -9720.594849657398, 8378.014967204925, -22243.852584821296, -10859.05860174401, 18954.23459461148, -47238.377897546045, -14697.300159609338, -12868.346317809383, -0.116, 0.978, 0.20400000000000001, 192.0, 0.0, 0.0, 0.0, 0.0, 0.0, 0.0, 0.0, 0.0, 0.0, 1.6814212322735488E9, 0.0, 2023-04-13 17:27:12.273
48.0, -9727.658000905276, 8365.542693798863, -22273.468646224577, -10811.18116512074, 19188.90555964775, -47274.05128169672, -14721.39534013216, -12891.703890765179, -0.116, 0.978, 0.20400000000000001, 192.0, 0.0, 0.0, 0.0, 0.0, 0.0, 0.0, 0.0, 0.0, 0.0, 1.6814212322735765E9, 0.0, 2023-04-13 17:27:12.273
49.0, -9754.345983784913, 8335.837225417761, -22280.73296317255, -11152.82757912011, 19055.219776060556, -47278.32046488768, -14716.209735418528, -12866.155846852762, -0.116, 0.978, 0.20400000000000001, 192.0, 0.0, 0.0, 0.0, 0.0, 0.0, 0.0, 0.0, 0.0, 0.0, 1.6814212322736075E9, 0.0, 2023-04-13 17:27:12.273
50.0, -9748.601585459899, 8340.061705119813, -22252.636820392232, -11318.521060767302, 18770.57031042222, -47247.43035405044, -14683.6655954916, -12825.855651599843, -0.116, 0.978, 0.20400000000000001, 192.0, 0.0, 0.0, 0.0, 0.0, 0.0, 0.0, 0.0, 0.0, 0.0, 1.6814212322736409E9, 0.0, 2023-04-13 17:27:12.273
51.0, -9717.487957178111, 8370.102449667746, -22227.893439280208, -10904.454994732738, 18900.277483496367, -47237.752048701295, -14688.04653740484, -12851.962489123642, -0.116, 0.978, 0.20400000000000001, 192.0, 0.0, 0.0, 0.0, 0.0, 0.0, 0.0, 0.0, 0.0, 0.0, 1.6814212322736726E9, 0.0, 2023-04-13 17:27:12.273
52.0, -9721.801843857986, 8370.482429323487, -22256.21309950508, -10764.466019209149, 19170.510073961028, -47279.21453466589, -14731.297162925859, -12890.899227964786, -0.112, 0.978, 0.20600000000000002, 192.0, 252.0, 128.0, 30.0, 144.0, 6.0, 112.0, 0.0, 0.0, 0.0, 1.6814212322737403E9, 0.0, 2023-04-13 17:27:12.273
53.0, -9749.629765704844, 8347.549539512342, -22284.01866960748, -11085.034738187163, 19088.54622704342, -47292.69263657244, -14734.426407149604, -12867.429896286714, -0.112, 0.978, 0.20600000000000002, 192.0, 0.0, 0.0, 0.0, 0.0, 0.0, 0.0, 0.0, 0.0, 0.0, 1.6814212322737615E9, 0.0, 2023-04-13 17:27:12.273
54.0, -9759.129257098348, 8338.407676030121, -22265.444369965124, -11333.407322574536, 18819.118299379148, -47273.604246807605, -14706.598485302746, -12829.610744668335, -0.112, 0.978, 0.20600000000000002, 192.0, 0.0, 0.0, 0.0, 0.0, 0.0, 0.0, 0.0, 0.0, 0.0, 1.6814212322737808E9, 0.0, 2023-04-13 17:27:12.273
55.0, -9728.64147766131, 8364.939196698571, -22237.30352369589, -11001.908600557876, 18857.853872520194, -47257.533342544244, -14694.90852295262, -12845.413427998237, -0.112, 0.978, 0.20600000000000002, 192.0, 0.0, 0.0, 0.0, 0.0, 0.0, 0.0, 0.0, 0.0, 0.0, 1.6814212322738E9, 0.0, 2023-04-13 17:27:12.273
56.0, -9716.057445532972, 8375.511571825931, -22249.284058723933, -10751.546710913983, 19143.44211142565, -47291.82091853868, -14724.032845977885, -12882.897303449787, -0.112, 0.978, 0.20600000000000002, 192.0, 0.0, 0.0, 0.0, 0.0, 0.0, 0.0, 0.0, 0.0, 0.0, 1.6814212322738197E9, 0.0, 2023-04-13 17:27:12.273
57.0, -9746.299355781002, 8346.901338923137, -22282.811675406894, -11023.075702557053, 19139.2176317236, -47308.3165059467, -14740.349619430259, -12875.722393479633, -0.112, 0.978, 0.20600000000000002, 192.0, 0.0, 0.0, 0.0, 0.0, 0.0, 0.0, 0.0, 0.0, 0.0, 1.6814212322738388E9, 0.0, 2023-04-13 17:27:12.273
58.0, -9758.5034082536, 8333.959678883515, -22267.098399054816, -11330.635706262077, 18863.73238131194, -47284.534249846256, -14713.125194683695, -12830.840090613377, -0.112, 0.978, 0.20600000000000002, 192.0, 0.0, 0.0, 0.0, 0.0, 0.0, 0.0, 0.0, 0.0, 0.0, 1.681421232273858E9, 0.0, 2023-04-13 17:27:12.273
59.0, -9726.719227638154, 8364.827437976293, -22225.613561345766, -11090.823840001089, 18800.745165436885, -47255.32051984317, -14686.794839715343, -12830.43775921318, -0.112, 0.978, 0.20600000000000002, 192.0, 0.0, 0.0, 0.0, 0.0, 0.0, 0.0, 0.0, 0.0, 0.0, 1.681421232273877E9, 0.0, 2023-04-13 17:27:12.273
60.0, -9712.145890253292, 8380.853638750748, -22256.324858227355, -10747.813969589946, 19083.561788029885, -47281.18148817796, -14718.8248895198, -12880.103335392874, -0.112, 0.978, 0.20600000000000002, 192.0, 0.0, 0.0, 0.0, 0.0, 0.0, 0.0, 0.0, 0.0, 0.0, 1.681421232273896E9, 0.0, 2023-04-13 17:27:12.273
61.0, -9743.930070868739, 8354.031545404381, -22286.566768475386, -10951.147788899874, 19151.824015596394, -47306.79658732374, -14742.741256086978, -12883.344338338893, -0.112, 0.978, 0.20600000000000002, 192.0, 0.0, 0.0, 0.0, 0.0, 0.0, 0.0, 0.0, 0.0, 0.0, 1.681421232273916E9, 0.0, 2023-04-13 17:27:12.273
62.0, -9765.655966479299, 8330.092827092747, -22291.327690044367, -11302.070176848196, 18891.157971758603, -47297.61002035261, -14721.976485487998, -12842.35123900786, -0.116, 0.976, 0.20600000000000002, 192.0, 252.0, 96.0, 30.0, 128.0, 6.0, 112.0, 0.0, 0.0, 0.0, 1.6814212322739353E9, 0.0, 2023-04-13 17:27:12.273
63.0, -9738.789169644018, 8349.36003081322, -22234.30838993888, -11161.321242013126, 18771.956118578448, -47261.69076701293, -14693.478011307481, -12831.06360805793, -0.116, 0.976, 0.20600000000000002, 192.0, 0.0, 0.0, 0.0, 0.0, 0.0, 0.0, 0.0, 0.0, 0.0, 1.681421232273968E9, 0.0, 2023-04-13 17:27:12.273
64.0, -9715.677465877232, 8372.60584504674, -22252.83798609233, -10767.70702215517, 19049.810653902372, -47283.28255215676, -14730.760721058932, -12881.64560576029, -0.116, 0.976, 0.20600000000000002, 192.0, 0.0, 0.0, 0.0, 0.0, 0.0, 0.0, 0.0, 0.0, 0.0, 1.6814212322739916E9, 0.0, 2023-04-13 17:27:12.273
65.0, -9735.726980653642, 8355.283243093878, -22291.908835400205, -10911.16051806933, 19155.534405175975, -47315.491415916855, -14764.35539297526, -12890.340434353404, -0.116, 0.976, 0.20600000000000002, 192.0, 0.0, 0.0, 0.0, 0.0, 0.0, 0.0, 0.0, 0.0, 0.0, 1.6814212322740104E9, 0.0, 2023-04-13 17:27:12.274
66.0, -9761.431486777245, 8335.211376573012, -22291.104172599815, -11264.429839185457, 18943.50575727293, -47307.0648082572, -14730.850128036755, -12849.63790770029, -0.116, 0.976, 0.20600000000000002, 192.0, 0.0, 0.0, 0.0, 0.0, 0.0, 0.0, 0.0, 0.0, 0.0, 1.6814212322740302E9, 0.0, 2023-04-13 17:27:12.274
67.0, -9744.891195880318, 8348.778885457383, -22247.182994745137, -11239.328830162149, 18761.42844694, -47267.07753742666, -14694.126211896684, -12826.883831844787, -0.116, 0.976, 0.20600000000000002, 192.0, 0.0, 0.0, 0.0, 0.0, 0.0, 0.0, 0.0, 0.0, 0.0, 1.681421232274049E9, 0.0, 2023-04-13 17:27:12.274
68.0, -9716.72799786663, 8371.823533990804, -22247.428863934143, -10799.111223114876, 19007.1858772261, -47271.19025840644, -14702.351653856238, -12868.279262576016, -0.116, 0.976, 0.20600000000000002, 192.0, 0.0, 0.0, 0.0, 0.0, 0.0, 0.0, 0.0, 0.0, 0.0, 1.6814212322740889E9, 0.0, 2023-04-13 17:27:12.274
69.0, -9726.339247982412, 8364.089830409268, -22288.958405132104, -10845.781665537557, 19177.37205950881, -47300.538098876255, -14728.838471035777, -12880.572722026434, -0.116, 0.976, 0.20600000000000002, 192.0, 0.0, 0.0, 0.0, 0.0, 0.0, 0.0, 0.0, 0.0, 0.0, 1.681421232274108E9, 0.0, 2023-04-13 17:27:12.274
70.0, -9752.848416906407, 8331.992725371449, -22281.470570739577, -11202.783727977721, 18990.80204854036, -47295.33014241817, -14718.646075564156, -12843.580584952902, -0.116, 0.976, 0.20600000000000002, 192.0, 0.0, 0.0, 0.0, 0.0, 0.0, 0.0, 0.0, 0.0, 0.0, 1.6814212322741268E9, 0.0, 2023-04-13 17:27:12.274
71.0, -9747.93103312624, 8335.054914361825, -22257.107169283292, -11290.179048797972, 18746.206908965934, -47264.797659492215, -14694.170915385595, -12818.412520696225, -0.116, 0.976, 0.20600000000000002, 192.0, 0.0, 0.0, 0.0, 0.0, 0.0, 0.0, 0.0, 0.0, 0.0, 1.681421232274146E9, 0.0, 2023-04-13 17:27:12.274
72.0, -9718.739654867608, 8368.694289767061, -22247.69708486761, -10853.850645285922, 18938.3201525593, -47263.38949959153, -14713.505174339436, -12860.232634572105, -0.11, 0.972, 0.20600000000000002, 192.0, 252.0, 144.0, 30.0, 96.0, 6.0, 112.0, 0.0, 0.0, 0.0, 1.681421232274165E9, 0.0, 2023-04-13 17:27:12.274
73.0, -9730.519024195555, 8365.98972868797, -22290.500675499523, -10799.580609748436, 19183.027050856002, -47303.64499135554, -14749.960869546041, -12893.179105899228, -0.11, 0.972, 0.20600000000000002, 192.0, 0.0, 0.0, 0.0, 0.0, 0.0, 0.0, 0.0, 0.0, 0.0, 1.6814212322741847E9, 0.0, 2023-04-13 17:27:12.274
74.0, -9757.989318131127, 8338.944117897048, -22300.201332593126, -11147.977250573309, 19048.871880635248, -47303.08619774416, -14739.455549652046, -12857.326907792916, -0.11, 0.972, 0.20600000000000002, 192.0, 0.0, 0.0, 0.0, 0.0, 0.0, 0.0, 0.0, 0.0, 0.0, 1.681421232274204E9, 0.0, 2023-04-13 17:27:12.274
75.0, -9760.760934443586, 8330.539861981853, -22276.77670440396, -11326.455930048935, 18772.04552555627, -47271.74905201782, -14707.246685891949, -12824.246325999062, -0.11, 0.972, 0.20600000000000002, 192.0, 0.0, 0.0, 0.0, 0.0, 0.0, 0.0, 0.0, 0.0, 0.0, 1.681421232274223E9, 0.0, 2023-04-13 17:27:12.274
76.0, -9726.048675304493, 8363.46398156452, -22251.094550024816, -10929.131320611397, 18879.713878597486, -47256.92984544395, -14705.883229480176, -12850.956660623153, -0.11, 0.972, 0.20600000000000002, 192.0, 0.0, 0.0, 0.0, 0.0, 0.0, 0.0, 0.0, 0.0, 0.0, 1.681421232274242E9, 0.0, 2023-04-13 17:27:12.274
77.0, -9735.481111464633, 8357.853693706238, -22294.389879034745, -10774.546655958493, 19148.381846950277, -47297.878241286075, -14749.513834656935, -12896.308350122972, -0.11, 0.972, 0.20600000000000002, 192.0, 0.0, 0.0, 0.0, 0.0, 0.0, 0.0, 0.0, 0.0, 0.0, 1.6814212322742608E9, 0.0, 2023-04-13 17:27:12.274
78.0, -9770.483943281644, 8321.666219433097, -22332.678417286686, -11096.635293559468, 19089.753221244006, -47318.66536362951, -14752.620727136224, -12884.93131219522, -0.11, 0.972, 0.20600000000000002, 192.0, 0.0, 0.0, 0.0, 0.0, 0.0, 0.0, 0.0, 0.0, 0.0, 1.6814212322742798E9, 0.0, 2023-04-13 17:27:12.274
79.0, -9758.235187320137, 8321.465053732998, -22271.524044456964, -11338.168244143515, 18811.630464986618, -47272.86663924058, -14703.312778867816, -12826.705017889146, -0.11, 0.972, 0.20600000000000002, 192.0, 0.0, 0.0, 0.0, 0.0, 0.0, 0.0, 0.0, 0.0, 0.0, 1.681421232274299E9, 0.0, 2023-04-13 17:27:12.274
80.0, -9726.473358449144, 8351.259929091922, -22237.661151607175, -10998.667597611857, 18851.26010790588, -47248.21266510638, -14700.451755577536, -12834.863404615333, -0.11, 0.972, 0.20600000000000002, 192.0, 0.0, 0.0, 0.0, 0.0, 0.0, 0.0, 0.0, 0.0, 0.0, 1.6814212322743175E9, 0.0, 2023-04-13 17:27:12.274
81.0, -9716.63859088881, 8368.247254877955, -22285.583291719355, -10748.372763201329, 19138.323561945388, -47292.17854644997, -14747.323363700316, -12886.384175584815, -0.11, 0.972, 0.20600000000000002, 192.0, 0.0, 0.0, 0.0, 0.0, 0.0, 0.0, 0.0, 0.0, 0.0, 1.6814212322743363E9, 0.0, 2023-04-13 17:27:12.274
82.0, -9745.628803447344, 8341.626327231685, -22303.08470762786, -11019.298257744105, 19134.970800277093, -47308.18239547997, -14754.408866692647, -12877.376422569327, -0.112, 0.976, 0.202, 192.0, 252.0, 128.0, 30.0, 128.0, 6.0, 80.0, 0.0, 0.0, 0.0, 1.6814212322743554E9, 0.0, 2023-04-13 17:27:12.274
83.0, -9754.100114595904, 8333.758513183417, -22281.93995737314, -11329.585174272677, 18863.821788289762, -47284.511898101795, -14718.020226719407, -12829.63309641279, -0.112, 0.976, 0.202, 192.0, 0.0, 0.0, 0.0, 0.0, 0.0, 0.0, 0.0, 0.0, 0.0, 1.6814212322743928E9, 0.0, 2023-04-13 17:27:12.274
84.0, -9727.143910782805, 8361.65349026364, -22240.790395830918, -11092.43316560187, 18807.18246784001, -47251.34190933012, -14689.43234556107, -12829.92366909071, -0.112, 0.976, 0.202, 192.0, 0.0, 0.0, 0.0, 0.0, 0.0, 0.0, 0.0, 0.0, 0.0, 1.681421232274412E9, 0.0, 2023-04-13 17:27:12.274
85.0, -9703.674579104732, 8385.815726019828, -22256.727189627552, -10741.354315442362, 19101.48788708304, -47274.72183403037, -14720.121290698205, -12882.226751116128, -0.112, 0.976, 0.202, 192.0, 0.0, 0.0, 0.0, 0.0, 0.0, 0.0, 0.0, 0.0, 0.0, 1.681421232274431E9, 0.0, 2023-04-13 17:27:12.274
86.0, -9722.584154913922, 8375.668034037119, -22285.493884741532, -10950.968974944231, 19144.51499515951, -47300.02400875378, -14733.465282138024, -12879.83511445941, -0.112, 0.976, 0.202, 192.0, 0.0, 0.0, 0.0, 0.0, 0.0, 0.0, 0.0, 0.0, 0.0, 1.6814212322744532E9, 0.0, 2023-04-13 17:27:12.274
87.0, -9752.669602950764, 8345.917862167104, -22288.645480709733, -11293.308293021715, 18888.051079279314, -47284.35543589061, -14713.125194683695, -12835.131625548796, -0.112, 0.976, 0.202, 192.0, 0.0, 0.0, 0.0, 0.0, 0.0, 0.0, 0.0, 0.0, 0.0, 1.681421232274472E9, 0.0, 2023-04-13 17:27:12.274
88.0, -9734.765855642063, 8358.993632673459, -22246.713608111575, -11166.082163582107, 18777.208778525448, -47249.10673488459, -14691.28754035086, -12823.843994598867, -0.112, 0.976, 0.202, 192.0, 0.0, 0.0, 0.0, 0.0, 0.0, 0.0, 0.0, 0.0, 0.0, 1.681421232274491E9, 0.0, 2023-04-13 17:27:12.274
89.0, -9706.602657628377, 8384.787545774883, -22258.87295709526, -10774.725469914136, 19053.610450459775, -47267.01048219329, -14719.830718020286, -12873.956605667665, -0.112, 0.976, 0.202, 192.0, 0.0, 0.0, 0.0, 0.0, 0.0, 0.0, 0.0, 0.0, 0.0, 1.68142123227451E9, 0.0, 2023-04-13 17:27:12.274
90.0, -9728.842643361408, 8362.36874608621, -22287.907873142707, -10897.123622551397, 19181.88711188878, -47299.35345642012, -14749.312668956838, -12889.133440152818, -0.112, 0.976, 0.202, 192.0, 0.0, 0.0, 0.0, 0.0, 0.0, 0.0, 0.0, 0.0, 0.0, 1.681421232274541E9, 0.0, 2023-04-13 17:27:12.274
91.0, -9753.183693073237, 8338.564138241309, -22297.65323372522, -11258.707792604899, 18971.46778958652, -47294.592534851145, -14726.089206467774, -12848.20739605515, -0.112, 0.976, 0.202, 192.0, 0.0, 0.0, 0.0, 0.0, 0.0, 0.0, 0.0, 0.0, 0.0, 1.68142123227458E9, 0.0, 2023-04-13 17:27:12.274
92.0, -9738.319783010458, 8352.265757592411, -22260.147006529216, -11256.249100714815, 18767.686935387486, -47262.47307806886, -14703.603351545735, -12824.91687833272, -0.112, 0.978, 0.20800000000000002, 192.0, 252.0, 128.0, 30.0, 144.0, 6.0, 128.0, 0.0, 0.0, 0.0, 1.6814212322746005E9, 0.0, 2023-04-13 17:27:12.274
93.0, -9706.960285539662, 8375.444516592564, -22256.68248613864, -10820.054807669498, 19002.24614170148, -47264.35062460311, -14727.609125090734, -12869.508608521059, -0.112, 0.978, 0.20800000000000002, 192.0, 0.0, 0.0, 0.0, 0.0, 0.0, 0.0, 0.0, 0.0, 0.0, 1.6814212322746208E9, 0.0, 2023-04-13 17:27:12.274
94.0, -9714.850451332386, 8370.41537409012, -22296.1109633578, -10847.882729516356, 19186.871550902313, -47293.78787205075, -14755.213529493038, -12893.447326832693, -0.112, 0.978, 0.20800000000000002, 192.0, 0.0, 0.0, 0.0, 0.0, 0.0, 0.0, 0.0, 0.0, 0.0, 1.6814212322746398E9, 0.0, 2023-04-13 17:27:12.274
95.0, -9743.036001090528, 8347.08015287878, -22302.436507038656, -11210.897411214997, 19018.406452942665, -47297.31944767469, -14752.218395736027, -12865.30648056346, -0.112, 0.978, 0.20800000000000002, 192.0, 0.0, 0.0, 0.0, 0.0, 0.0, 0.0, 0.0, 0.0, 0.0, 1.681421232274659E9, 0.0, 2023-04-13 17:27:12.274
96.0, -9725.914564837762, 8363.240464119966, -22254.335552970835, -11311.99435138635, 18755.28171721479, -47253.77824947575, -14703.62570329019, -12821.340599219871, -0.112, 0.978, 0.20800000000000002, 192.0, 0.0, 0.0, 0.0, 0.0, 0.0, 0.0, 0.0, 0.0, 0.0, 1.6814212322746778E9, 0.0, 2023-04-13 17:27:12.274
97.0, -9694.197439455682, 8393.437670879088, -22238.845794063305, -10872.156723994818, 18946.65735324113, -47248.726755228854, -14704.184496901573, -12858.668012460234, -0.112, 0.978, 0.20800000000000002, 192.0, 0.0, 0.0, 0.0, 0.0, 0.0, 0.0, 0.0, 0.0, 0.0, 1.6814212322746966E9, 0.0, 2023-04-13 17:27:12.274
98.0, -9704.278076205024, 8381.32302538431, -22283.21400680709, -10811.918772687766, 19175.13688506328, -47289.22811618187, -14746.25047996646, -12897.64945479029, -0.112, 0.978, 0.20800000000000002, 192.0, 0.0, 0.0, 0.0, 0.0, 0.0, 0.0, 0.0, 0.0, 0.0, 1.6814212322747161E9, 0.0, 2023-04-13 17:27:12.274
99.0, -9739.482073722134, 8348.242443590456, -22304.582274506363, -11159.309585012148, 19050.928241125137, -47296.09010172965, -14742.741256086978, -12870.380326554816, -0.112, 0.978, 0.20800000000000002, 192.0, 0.0, 0.0, 0.0, 0.0, 0.0, 0.0, 0.0, 0.0, 0.0, 1.6814212322747605E9, 0.0, 2023-04-13 17:27:12.274
100.0, -9742.656021434786, 8345.2696615779, -22278.90012012722, -11355.133218185094, 18781.09798206067, -47265.423508336964, -14708.498383581447, -12828.470805701114, -0.112, 0.978, 0.20800000000000002, 192.0, 0.0, 0.0, 0.0, 0.0, 0.0, 0.0, 0.0, 0.0, 0.0, 1.6814212322747917E9, 0.0, 2023-04-13 17:27:12.274
101.0, -9715.230430988126, 8372.538789813374, -22257.844776850317, -10957.585091303003, 18895.98594856095, -47251.14074363002, -14711.113537682717, -12859.986765383097, -0.112, 0.978, 0.20800000000000002, 192.0, 0.0, 0.0, 0.0, 0.0, 0.0, 0.0, 0.0, 0.0, 0.0, 1.681421232274811E9, 0.0, 2023-04-13 17:27:12.274
102.0, -9716.325666466435, 8375.153943914645, -22294.07695461237, -10787.600074720393, 19160.675306400695, -47284.44484286843, -14751.972526547019, -12891.659187276267, -0.114, 0.976, 0.21, 192.0, 252.0, 112.0, 30.0, 128.0, 6.0, 144.0, 0.0, 0.0, 0.0, 1.6814212322748303E9, 0.0, 2023-04-13 17:27:12.274
103.0, -9746.768742414564, 8346.99074590096, -22314.79702172244, -11096.501183092736, 19101.756108016507, -47297.654723841515, -14757.828683594309, -12873.867198689843, -0.114, 0.976, 0.21, 192.0, 0.0, 0.0, 0.0, 0.0, 0.0, 0.0, 0.0, 0.0, 0.0, 1.6814212322748508E9, 0.0, 2023-04-13 17:27:12.274
104.0, -9754.569501229465, 8337.290088807356, -22292.579387733866, -11360.274119409814, 18816.905476678072, -47266.205819392904, -14721.216526176517, -12827.509680689536, -0.114, 0.976, 0.21, 192.0, 0.0, 0.0, 0.0, 0.0, 0.0, 0.0, 0.0, 0.0, 0.0, 1.68142123227487E9, 0.0, 2023-04-13 17:27:12.274
105.0, -9726.093378793405, 8363.955719942536, -22261.935146085638, -11042.074685344063, 18836.709122265474, -47246.82685695015, -14709.504212081936, -12845.122855320318, -0.114, 0.976, 0.21, 192.0, 0.0, 0.0, 0.0, 0.0, 0.0, 0.0, 0.0, 0.0, 0.0, 1.68142123275146E9, 0.0, 2023-04-13 17:27:12.751
106.0, -9716.504480422078, 8378.84198174977, -22289.3607365323, -10778.413507749261, 19128.377035662776, -47282.768462034284, -14750.16203524614, -12894.36374835536, -0.114, 0.976, 0.21, 192.0, 0.0, 0.0, 0.0, 0.0, 0.0, 0.0, 0.0, 0.0, 0.0, 1.6814212327516515E9, 0.0, 2023-04-13 17:27:12.751
107.0, -9736.799864387496, 8355.976147171992, -22309.70082398663, -11035.995010852219, 19127.013579251, -47296.78300580776, -14759.505064428457, -12879.186913870206, -0.114, 0.976, 0.21, 192.0, 0.0, 0.0, 0.0, 0.0, 0.0, 0.0, 0.0, 0.0, 0.0, 1.681421232751682E9, 0.0, 2023-04-13 17:27:12.751
108.0, -9751.194387816715, 8333.333830038766, -22297.250902325024, -11349.902909982553, 18847.01327645937, -47278.58868582114, -14736.214546706027, -12840.808968640444, -0.114, 0.976, 0.21, 192.0, 0.0, 0.0, 0.0, 0.0, 0.0, 0.0, 0.0, 0.0, 0.0, 1.6814212327517028E9, 0.0, 2023-04-13 17:27:12.751
109.0, -9725.288715993014, 8357.965452428514, -22258.716494884076, -11134.499148666759, 18794.06199384475, -47255.40992682099, -14716.142680185161, -12841.703038418656, -0.114, 0.976, 0.21, 192.0, 0.0, 0.0, 0.0, 0.0, 0.0, 0.0, 0.0, 0.0, 0.0, 1.6814212327517228E9, 0.0, 2023-04-13 17:27:12.751
110.0, -9706.937933795207, 8377.523228826909, -22278.07310558237, -10783.442650251705, 19085.618148519774, -47278.02989220976, -14742.361276431237, -12886.808858729466, -0.114, 0.976, 0.21, 192.0, 0.0, 0.0, 0.0, 0.0, 0.0, 0.0, 0.0, 0.0, 0.0, 1.681421232751742E9, 0.0, 2023-04-13 17:27:12.751
111.0, -9730.988410829117, 8353.092772137257, -22313.61237926631, -10986.642359094902, 19152.181643507676, -47312.16100599301, -14762.343735974282, -12896.710681523167, -0.114, 0.976, 0.21, 192.0, 0.0, 0.0, 0.0, 0.0, 0.0, 0.0, 0.0, 0.0, 0.0, 1.6814212327517612E9, 0.0, 2023-04-13 17:27:12.751
112.0, -9756.625861719354, 8333.199719572034, -22309.65612049772, -11335.798959231253, 18906.245399265936, -47296.201860451925, -14744.551747387857, -12851.940137379186, -0.112, 0.972, 0.20600000000000002, 192.0, 252.0, 128.0, 30.0, 96.0, 6.0, 112.0, 0.0, 0.0, 0.0, 1.6814212327517805E9, 0.0, 2023-04-13 17:27:12.751
113.0, -9740.420846989256, 8352.355164570232, -22268.79713163342, -11219.391074108014, 18767.038734798283, -47258.405060578, -14720.322456398304, -12839.06553257293, -0.112, 0.972, 0.20600000000000002, 192.0, 0.0, 0.0, 0.0, 0.0, 0.0, 0.0, 0.0, 0.0, 0.0, 1.6814212327518013E9, 0.0, 2023-04-13 17:27:12.751
114.0, -9710.40245418578, 8383.446441107564, -22272.284003768447, -10804.140365617319, 19039.171223541645, -47264.663549025485, -14736.05808449484, -12870.179160854717, -0.112, 0.972, 0.20600000000000002, 192.0, 0.0, 0.0, 0.0, 0.0, 0.0, 0.0, 0.0, 0.0, 0.0, 1.681421232751865E9, 0.0, 2023-04-13 17:27:12.751
115.0, -9735.726980653642, 8357.451362306043, -22322.2178008816, -10926.337352554483, 19167.023201826003, -47305.54488963424, -14767.439933710091, -12895.816611744955, -0.112, 0.972, 0.20600000000000002, 192.0, 0.0, 0.0, 0.0, 0.0, 0.0, 0.0, 0.0, 0.0, 0.0, 1.6814212327518857E9, 0.0, 2023-04-13 17:27:12.751
116.0, -9753.474265751156, 8331.478635248975, -22311.93599843216, -11283.339414994647, 18945.852690440737, -47294.74899706233, -14741.891889797675, -12851.73897167909, -0.112, 0.972, 0.20600000000000002, 192.0, 0.0, 0.0, 0.0, 0.0, 0.0, 0.0, 0.0, 0.0, 0.0, 1.681421232751905E9, 0.0, 2023-04-13 17:27:12.751
117.0, -9738.811521388474, 8339.279394063878, -22279.414210249688, -11284.904037106518, 18744.061141498227, -47263.30009261371, -14711.515869082914, -12831.018904569019, -0.112, 0.972, 0.20600000000000002, 192.0, 0.0, 0.0, 0.0, 0.0, 0.0, 0.0, 0.0, 0.0, 0.0, 1.681421232751924E9, 0.0, 2023-04-13 17:27:12.751
118.0, -9709.955419296673, 8366.906150210638, -22275.54735845892, -10845.424037626271, 18977.100429189257, -47269.31271187219, -14736.862747295232, -12879.321024336938, -0.112, 0.972, 0.20600000000000002, 192.0, 0.0, 0.0, 0.0, 0.0, 0.0, 0.0, 0.0, 0.0, 0.0, 1.681421232751943E9, 0.0, 2023-04-13 17:27:12.751
119.0, -9722.584154913922, 8360.111219896224, -22314.4170420667, -10874.034270529064, 19165.570338436406, -47308.33885769115, -14770.524474444925, -12905.98665547212, -0.112, 0.972, 0.20600000000000002, 192.0, 0.0, 0.0, 0.0, 0.0, 0.0, 0.0, 0.0, 0.0, 0.0, 1.681421232751963E9, 0.0, 2023-04-13 17:27:12.751
120.0, -9752.580195972943, 8337.93828939656, -22330.04091144096, -11239.887623773531, 18989.10331596176, -47313.189186237956, -14764.5342069309, -12875.856503946365, -0.112, 0.972, 0.20600000000000002, 192.0, 0.0, 0.0, 0.0, 0.0, 0.0, 0.0, 0.0, 0.0, 0.0, 1.6814212327519817E9, 0.0, 2023-04-13 17:27:12.751
121.0, -9746.768742414564, 8337.625364974185, -22294.568692990386, -11345.834892491686, 18740.216641451912, -47280.3097701442, -14722.401168632648, -12842.842977385877, -0.112, 0.972, 0.20600000000000002, 192.0, 0.0, 0.0, 0.0, 0.0, 0.0, 0.0, 0.0, 0.0, 0.0, 1.6814212327520013E9, 0.0, 2023-04-13 17:27:12.752
122.0, -9707.049692517483, 8369.94598745656, -22270.428808978657, -10911.764015169623, 18922.673931440586, -47270.38559560604, -14725.955096001042, -12877.130553380317, -0.112, 0.974, 0.20600000000000002, 192.0, 252.0, 128.0, 30.0, 112.0, 6.0, 112.0, 0.0, 0.0, 0.0, 1.6814212327520235E9, 0.0, 2023-04-13 17:27:12.752
123.0, -9710.737730352608, 8371.734127012984, -22307.756222219017, -10832.14710141982, 19167.850216370847, -47304.69552334494, -14761.06968654033, -12904.98082697163, -0.112, 0.974, 0.20600000000000002, 192.0, 0.0, 0.0, 0.0, 0.0, 0.0, 0.0, 0.0, 0.0, 0.0, 1.681421232752045E9, 0.0, 2023-04-13 17:27:12.752
124.0, -9739.616184188866, 8349.136513368669, -22326.84461198385, -11174.039384608197, 19047.687238179118, -47311.870433315096, -14768.266948254937, -12885.378347084326, -0.112, 0.974, 0.20600000000000002, 192.0, 0.0, 0.0, 0.0, 0.0, 0.0, 0.0, 0.0, 0.0, 0.0, 1.6814212327520635E9, 0.0, 2023-04-13 17:27:12.752
125.0, -9737.515120210066, 8344.710867966518, -22295.216893579593, -11375.406250406057, 18760.75789460634, -47275.75001427532, -14727.944401257564, -12836.852709871855, -0.112, 0.974, 0.20600000000000002, 192.0, 0.0, 0.0, 0.0, 0.0, 0.0, 0.0, 0.0, 0.0, 0.0, 1.681421232752098E9, 0.0, 2023-04-13 17:27:12.752
126.0, -9702.981675026616, 8377.70204278255, -22266.94193684363, -10988.341091673505, 18853.048247462302, -47257.22041812187, -14715.494479595958, -12855.404657769759, -0.112, 0.974, 0.20600000000000002, 192.0, 0.0, 0.0, 0.0, 0.0, 0.0, 0.0, 0.0, 0.0, 0.0, 1.6814212327521172E9, 0.0, 2023-04-13 17:27:12.752
127.0, -9701.34999768138, 8384.631083563696, -22302.70472797212, -10805.637932495825, 19128.175869962677, -47295.441901140446, -14756.487578926992, -12896.487164078613, -0.112, 0.974, 0.20600000000000002, 192.0, 0.0, 0.0, 0.0, 0.0, 0.0, 0.0, 0.0, 0.0, 0.0, 1.6814212327521362E9, 0.0, 2023-04-13 17:27:12.752
128.0, -9733.201233530192, 8351.684612236573, -22330.487946330064, -11108.90640126543, 19080.320785083866, -47314.865567072105, -14770.390363978191, -12886.987672685109, -0.112, 0.974, 0.20600000000000002, 192.0, 0.0, 0.0, 0.0, 0.0, 0.0, 0.0, 0.0, 0.0, 0.0, 1.6814212327521613E9, 0.0, 2023-04-13 17:27:12.752
129.0, -9739.303259766491, 8343.101542365735, -22309.477306542078, -11381.552980131268, 18805.39432828359, -47290.50216561582, -14740.796654319365, -12846.575718709913, -0.112, 0.974, 0.20600000000000002, 192.0, 0.0, 0.0, 0.0, 0.0, 0.0, 0.0, 0.0, 0.0, 0.0, 1.6814212327522004E9, 0.0, 2023-04-13 17:27:12.752
130.0, -9709.553087896478, 8368.716641511517, -22270.965250845584, -11072.562464781102, 18813.128031865126, -47263.903589714006, -14724.34577040026, -12860.277338061016, -0.112, 0.974, 0.20600000000000002, 192.0, 0.0, 0.0, 0.0, 0.0, 0.0, 0.0, 0.0, 0.0, 0.0, 1.68142123275222E9, 0.0, 2023-04-13 17:27:12.752
131.0, -9704.546297138488, 8372.047051435358, -22296.69210871364, -10794.573818990448, 19111.099137198824, -47294.70429357342, -14747.368067189225, -12901.248085647594, -0.112, 0.974, 0.20600000000000002, 192.0, 0.0, 0.0, 0.0, 0.0, 0.0, 0.0, 0.0, 0.0, 0.0, 1.681421232752239E9, 0.0, 2023-04-13 17:27:12.752
132.0, -9738.409189988279, 8342.900376665637, -22330.107966674324, -11056.200987839817, 19110.339177887345, -47319.335915963165, -14770.390363978191, -12902.253914148083, -0.116, 0.976, 0.21, 192.0, 252.0, 96.0, 30.0, 128.0, 6.0, 144.0, 0.0, 0.0, 0.0, 1.681421232752258E9, 0.0, 2023-04-13 17:27:12.752
133.0, -9753.094286095416, 8330.74102768195, -22314.551152533433, -11372.321709671225, 18843.906383980084, -47296.42537789648, -14745.53522414389, -12853.281242046505, -0.116, 0.976, 0.21, 192.0, 0.0, 0.0, 0.0, 0.0, 0.0, 0.0, 0.0, 0.0, 0.0, 1.681421232752278E9, 0.0, 2023-04-13 17:27:12.752
134.0, -9719.857242090375, 8346.096676122746, -22269.624146178263, -11156.783837888699, 18777.700516903464, -47261.668415268476, -14718.981351730985, -12848.833244899899, -0.116, 0.976, 0.21, 192.0, 0.0, 0.0, 0.0, 0.0, 0.0, 0.0, 0.0, 0.0, 0.0, 1.6814212327522972E9, 0.0, 2023-04-13 17:27:12.752
135.0, -9712.25764897557, 8354.523283782397, -22293.94284414564, -10802.866316183367, 19076.029250148447, -47292.558526105706, -14755.772323104422, -12902.835059503921, -0.116, 0.976, 0.21, 192.0, 0.0, 0.0, 0.0, 0.0, 0.0, 0.0, 0.0, 0.0, 0.0, 1.681421232752316E9, 0.0, 2023-04-13 17:27:12.752
136.0, -9735.548166698, 8337.871234163194, -22325.32469336089, -11000.925123801842, 19140.268163713, -47317.90540431803, -14770.97150933403, -12903.237390904116, -0.116, 0.976, 0.21, 192.0, 0.0, 0.0, 0.0, 0.0, 0.0, 0.0, 0.0, 0.0, 0.0, 1.6814212327523353E9, 0.0, 2023-04-13 17:27:12.752
137.0, -9751.21673956117, 8321.755626410917, -22317.009844423515, -11342.660944779032, 18887.98402404595, -47298.05705524171, -14741.10957874174, -12853.124779835318, -0.116, 0.976, 0.21, 192.0, 0.0, 0.0, 0.0, 0.0, 0.0, 0.0, 0.0, 0.0, 0.0, 1.6814212327523544E9, 0.0, 2023-04-13 17:27:12.752
138.0, -9728.529718939033, 8347.348373812243, -22277.804884648907, -11238.814740039676, 18743.256478697836, -47264.35062460311, -14717.997874974952, -12845.033448342498, -0.116, 0.976, 0.21, 192.0, 0.0, 0.0, 0.0, 0.0, 0.0, 0.0, 0.0, 0.0, 0.0, 1.6814212327523735E9, 0.0, 2023-04-13 17:27:12.752
139.0, -9706.82617507293, 8375.332757870288, -22280.64355619473, -10827.296772873018, 19011.47741216152, -47275.95117997542, -14737.82387230681, -12889.580475041925, -0.116, 0.976, 0.21, 192.0, 0.0, 0.0, 0.0, 0.0, 0.0, 0.0, 0.0, 0.0, 0.0, 1.6814212327523923E9, 0.0, 2023-04-13 17:27:12.752
