%OpenBCI Raw EEG Data
%Number of channels = 8
%Sample Rate = 250 Hz
%Board = OpenBCI_GUI$BoardCytonSerial
Sample Index, EXG Channel 0, EXG Channel 1, EXG Channel 2, EXG Channel 3, EXG Channel 4, EXG Channel 5, EXG Channel 6, EXG Channel 7, Accel Channel 0, Accel Channel 1, Accel Channel 2, Other, Other, Other, Other, Other, Other, Other, Analog Channel 0, Analog Channel 1, Analog Channel 2, Timestamp, Other, Timestamp (Formatted)
0.0, 0.0, 0.0, 0.0, 0.0, 0.0, 0.0, 0.0, 0.0, -0.042, 0.994, 0.122, 192.0, 254.0, 176.0, 31.0, 16.0, 3.0, 208.0, 0.0, 0.0, 0.0, 1.6814209831532443E9, 0.0, 2023-04-13 17:23:03.153
1.0, -6350.667041619664, 18673.36257378609, -31145.188944958325, -5114.995552896923, 23149.880546317167, -45400.2151370305, -4186.079405078817, -16765.12709440316, -0.042, 0.994, 0.122, 192.0, 0.0, 0.0, 0.0, 0.0, 0.0, 0.0, 0.0, 0.0, 0.0, 1.6814209836310802E9, 0.0, 2023-04-13 17:23:03.631
2.0, -6319.262840659958, 18684.09141112464, -31110.5437410526, -5087.7934798948145, 23006.292939936273, -45368.90034304862, -4154.339927952281, -16742.06009412528, -0.042, 0.994, 0.122, 192.0, 0.0, 0.0, 0.0, 0.0, 0.0, 0.0, 0.0, 0.0, 0.0, 1.6814209836313536E9, 0.0, 2023-04-13 17:23:03.631
3.0, -6271.05012786986, 18699.06707990969, -31121.473744091243, -4950.643175917051, 23140.24694445693, -45364.050014501816, -4172.10956479425, -16780.03570795485, -0.042, 0.994, 0.122, 192.0, 0.0, 0.0, 0.0, 0.0, 0.0, 0.0, 0.0, 0.0, 0.0, 1.6814209836313767E9, 0.0, 2023-04-13 17:23:03.631
4.0, -6297.067558415837, 18687.019489648283, -31153.21322121778, -4994.407891560542, 23263.293297683394, -45402.09268356475, -4202.440882020102, -16803.482687888467, -0.042, 0.994, 0.122, 192.0, 0.0, 0.0, 0.0, 0.0, 0.0, 0.0, 0.0, 0.0, 0.0, 1.6814209836313992E9, 0.0, 2023-04-13 17:23:03.631
5.0, -6334.864358289762, 18675.061306364692, -31148.429947904344, -5105.004323125401, 23162.375171467684, -45411.18984355806, -4190.192126058594, -16773.88897822964, -0.042, 0.994, 0.122, 192.0, 0.0, 0.0, 0.0, 0.0, 0.0, 0.0, 0.0, 0.0, 0.0, 1.681420983631421E9, 0.0, 2023-04-13 17:23:03.631
6.0, -6316.982962725516, 18689.83580944965, -31119.283273134624, -5111.82160518427, 22998.246311932366, -45381.19380249904, -4157.223302987016, -16739.802567935298, -0.042, 0.994, 0.122, 192.0, 0.0, 0.0, 0.0, 0.0, 0.0, 0.0, 0.0, 0.0, 0.0, 1.6814209836314425E9, 0.0, 2023-04-13 17:23:03.631
7.0, -6265.730412689497, 18706.93489395796, -31127.01697671616, -4969.12806858159, 23107.23341789644, -45368.11803199268, -4169.807335115353, -16774.000736951915, -0.042, 0.994, 0.122, 192.0, 0.0, 0.0, 0.0, 0.0, 0.0, 0.0, 0.0, 0.0, 0.0, 1.681420983631464E9, 0.0, 2023-04-13 17:23:03.631
8.0, -6276.816877939329, 18707.3148736137, -31151.4027299169, -4976.79471692976, 23250.26223066595, -45396.32593349528, -4197.702312195577, -16793.69262381704, -0.046, 0.994, 0.108, 192.0, 254.0, 144.0, 31.0, 16.0, 3.0, 96.0, 0.0, 0.0, 0.0, 1.6814209836314847E9, 0.0, 2023-04-13 17:23:03.631
9.0, -6310.813881255852, 18698.64239676504, -31143.579619357544, -5079.948017591002, 23167.806645370325, -45403.3667329987, -4184.335969011303, -16764.188321136036, -0.046, 0.994, 0.108, 192.0, 0.0, 0.0, 0.0, 0.0, 0.0, 0.0, 0.0, 0.0, 0.0, 1.6814209836315084E9, 0.0, 2023-04-13 17:23:03.631
10.0, -6311.149157422681, 18700.229370621368, -31117.383374855923, -5126.0596664023005, 22992.30074790725, -45383.1607560111, -4150.316613950326, -16728.13495732963, -0.046, 0.994, 0.108, 192.0, 0.0, 0.0, 0.0, 0.0, 0.0, 0.0, 0.0, 0.0, 0.0, 1.68142098363153E9, 0.0, 2023-04-13 17:23:03.631
11.0, -6260.09777308676, 18722.223487165393, -31111.080182919526, -4989.915190925025, 23040.46875720844, -45361.90424703411, -4148.394363927169, -16746.46338778298, -0.046, 0.994, 0.108, 192.0, 0.0, 0.0, 0.0, 0.0, 0.0, 0.0, 0.0, 0.0, 0.0, 1.681420983631552E9, 0.0, 2023-04-13 17:23:03.631
12.0, -6262.9364446325835, 18725.285676155767, -31142.663197834874, -4967.675205191995, 23216.60050351626, -45390.78270087036, -4182.056091076862, -16780.281577143858, -0.046, 0.994, 0.108, 192.0, 0.0, 0.0, 0.0, 0.0, 0.0, 0.0, 0.0, 0.0, 0.0, 1.6814209836315966E9, 0.0, 2023-04-13 17:23:03.631
13.0, -6308.15402366567, 18704.073870667682, -31156.074244508058, -5077.511677445374, 23205.73755571098, -45417.98477387247, -4191.667341192644, -16771.050306683817, -0.046, 0.994, 0.108, 192.0, 0.0, 0.0, 0.0, 0.0, 0.0, 0.0, 0.0, 0.0, 0.0, 1.681420983631619E9, 0.0, 2023-04-13 17:23:03.631
14.0, -6309.606887055264, 18707.493687569346, -31121.02670920214, -5147.740858523948, 23011.41148941654, -45397.68938990705, -4155.233997730494, -16722.479965982435, -0.046, 0.994, 0.108, 192.0, 0.0, 0.0, 0.0, 0.0, 0.0, 0.0, 0.0, 0.0, 0.0, 1.6814209836316411E9, 0.0, 2023-04-13 17:23:03.631
15.0, -6250.173598548603, 18730.605391336132, -31104.553473538577, -5020.5817843177065, 23005.89060853608, -45362.016005756384, -4143.052297002351, -16729.99015211942, -0.046, 0.994, 0.108, 192.0, 0.0, 0.0, 0.0, 0.0, 0.0, 0.0, 0.0, 0.0, 0.0, 1.681420983631663E9, 0.0, 2023-04-13 17:23:03.631
16.0, -6241.970508333506, 18735.3216094162, -31138.438718132824, -4964.590664457162, 23198.719107952013, -45386.58057291277, -4185.386501000703, -16775.677117786065, -0.046, 0.994, 0.108, 192.0, 0.0, 0.0, 0.0, 0.0, 0.0, 0.0, 0.0, 0.0, 0.0, 1.6814209836318705E9, 0.0, 2023-04-13 17:23:03.631
17.0, -6276.682767472597, 18731.119481458605, -31142.104404223493, -5058.020956280346, 23201.73659345348, -45406.808901644814, -4191.7567481704655, -16762.064905412783, -0.046, 0.994, 0.108, 192.0, 0.0, 0.0, 0.0, 0.0, 0.0, 0.0, 0.0, 0.0, 0.0, 1.681420983631892E9, 0.0, 2023-04-13 17:23:03.631
18.0, -6290.473793801522, 18727.811423279218, -31113.58357829852, -5141.1470939096325, 23028.063539035742, -45393.24139276044, -4164.666433890633, -16721.87646888214, -0.056, 0.996, 0.106, 192.0, 254.0, 64.0, 31.0, 32.0, 3.0, 80.0, 0.0, 0.0, 0.0, 1.681420983631912E9, 0.0, 2023-04-13 17:23:03.631
19.0, -6242.439894967067, 18741.46833914141, -31094.606947255965, -5052.500075399885, 22982.957718724934, -45365.927561036064, -4148.394363927169, -16725.58685846172, -0.056, 0.996, 0.106, 192.0, 0.0, 0.0, 0.0, 0.0, 0.0, 0.0, 0.0, 0.0, 0.0, 1.6814209836319327E9, 0.0, 2023-04-13 17:23:03.631
20.0, -6219.03761852236, 18751.347810190655, -31125.050023204094, -4961.88610337807, 23178.177854797585, -45383.07134903328, -4180.871448620731, -16772.436114840046, -0.056, 0.996, 0.106, 192.0, 0.0, 0.0, 0.0, 0.0, 0.0, 0.0, 0.0, 0.0, 0.0, 1.6814209836319523E9, 0.0, 2023-04-13 17:23:03.631
21.0, -6258.890778886173, 18737.869708284106, -31141.009168745182, -5045.593386363195, 23226.770547243425, -45410.742808668954, -4193.9248673826305, -16768.12222816017, -0.056, 0.996, 0.106, 192.0, 0.0, 0.0, 0.0, 0.0, 0.0, 0.0, 0.0, 0.0, 0.0, 1.6814209836319716E9, 0.0, 2023-04-13 17:23:03.631
22.0, -6280.169639607625, 18731.007722736325, -31113.00243294268, -5140.431838087063, 23065.346248787195, -45397.868203862694, -4162.319500722826, -16719.797756647797, -0.056, 0.996, 0.106, 192.0, 0.0, 0.0, 0.0, 0.0, 0.0, 0.0, 0.0, 0.0, 0.0, 1.681420983631996E9, 0.0, 2023-04-13 17:23:03.631
23.0, -6247.781961891886, 18735.589830349665, -31092.662345488352, -5086.430023483041, 22974.419352343008, -45369.92852329356, -4144.371049925215, -16712.756957144375, -0.056, 0.996, 0.106, 192.0, 0.0, 0.0, 0.0, 0.0, 0.0, 0.0, 0.0, 0.0, 0.0, 1.6814209836320152E9, 0.0, 2023-04-13 17:23:03.632
24.0, -6221.697476112542, 18742.988257764373, -31124.670043548354, -4981.913266410025, 23152.853328329722, -45388.12284328018, -4181.8996288656745, -16763.987155435938, -0.056, 0.996, 0.106, 192.0, 0.0, 0.0, 0.0, 0.0, 0.0, 0.0, 0.0, 0.0, 0.0, 1.6814209836320343E9, 0.0, 2023-04-13 17:23:03.632
25.0, -6257.192046307569, 18732.79586229275, -31145.97125601426, -5048.5214648868405, 23230.257419378453, -45420.398762273646, -4200.809204674864, -16771.363231106192, -0.056, 0.996, 0.106, 192.0, 0.0, 0.0, 0.0, 0.0, 0.0, 0.0, 0.0, 0.0, 0.0, 1.6814209836320536E9, 0.0, 2023-04-13 17:23:03.632
26.0, -6293.96066593655, 18716.27792314028, -31134.63892157542, -5155.720431294493, 23090.268443854864, -45422.79039893036, -4178.68097766411, -16736.583916733733, -0.056, 0.996, 0.106, 192.0, 0.0, 0.0, 0.0, 0.0, 0.0, 0.0, 0.0, 0.0, 0.0, 1.6814209836320727E9, 0.0, 2023-04-13 17:23:03.632
27.0, -6275.6769389721085, 18722.80463252123, -31111.191941641802, -5137.123779907677, 22934.29797104573, -45398.69521840754, -4150.853055817253, -16716.556753701778, -0.056, 0.996, 0.106, 192.0, 0.0, 0.0, 0.0, 0.0, 0.0, 0.0, 0.0, 0.0, 0.0, 1.6814209836320918E9, 0.0, 2023-04-13 17:23:03.632
28.0, -6231.196967506047, 18739.881365285084, -31128.179267427837, -5004.756749243349, 23066.307373798772, -45397.242355017945, -4171.818992116331, -16757.728666988452, -0.062, 1.002, 0.10400000000000001, 192.0, 254.0, 16.0, 31.0, 80.0, 3.0, 64.0, 0.0, 0.0, 0.0, 1.6814209836321108E9, 0.0, 2023-04-13 17:23:03.632
29.0, -6253.056973583338, 18729.621914580097, -31157.25888696419, -5042.151217717078, 23191.05245960384, -45428.19952108854, -4202.776158186932, -16777.755830020407, -0.062, 1.002, 0.10400000000000001, 192.0, 0.0, 0.0, 0.0, 0.0, 0.0, 0.0, 0.0, 0.0, 0.0, 1.6814209836321318E9, 0.0, 2023-04-13 17:23:03.632
30.0, -6285.131726876703, 18721.88821099856, -31144.83131704704, -5142.354088110219, 23091.00605142189, -45430.121771111706, -4188.247524290982, -16744.764655204377, -0.062, 1.002, 0.10400000000000001, 192.0, 0.0, 0.0, 0.0, 0.0, 0.0, 0.0, 0.0, 0.0, 0.0, 1.681420983632152E9, 0.0, 2023-04-13 17:23:03.632
31.0, -6267.451497012556, 18733.488766370865, -31111.482514319723, -5151.674765548082, 22911.52154344577, -45398.98579108546, -4156.150419253161, -16710.946465843495, -0.062, 1.002, 0.10400000000000001, 192.0, 0.0, 0.0, 0.0, 0.0, 0.0, 0.0, 0.0, 0.0, 0.0, 1.6814209836321716E9, 0.0, 2023-04-13 17:23:03.632
32.0, -6213.472034152989, 18754.52175790331, -31114.187075398815, -5006.9025167110585, 23002.761364312337, -45380.52325016537, -4168.421526959125, -16740.808396435787, -0.062, 1.002, 0.10400000000000001, 192.0, 0.0, 0.0, 0.0, 0.0, 0.0, 0.0, 0.0, 0.0, 0.0, 1.6814209836322627E9, 0.0, 2023-04-13 17:23:03.632
33.0, -6228.939441316062, 18752.912432302528, -31141.724424567754, -5010.076464423712, 23159.178872010576, -45404.64078243265, -4202.30677155337, -16767.138751404138, -0.062, 1.002, 0.10400000000000001, 192.0, 0.0, 0.0, 0.0, 0.0, 0.0, 0.0, 0.0, 0.0, 0.0, 1.6814209836322825E9, 0.0, 2023-04-13 17:23:03.632
34.0, -6276.101622116759, 18731.18653669197, -31142.037348990125, -5118.527128520862, 23109.200371408508, -45417.98477387247, -4201.1444808416945, -16748.810320950786, -0.062, 1.002, 0.10400000000000001, 192.0, 0.0, 0.0, 0.0, 0.0, 0.0, 0.0, 0.0, 0.0, 0.0, 1.6814209836323016E9, 0.0, 2023-04-13 17:23:03.632
35.0, -6270.066651113827, 18739.255516440335, -31101.088953148002, -5158.916730751602, 22912.326206246165, -45383.965418811495, -4158.184427998594, -16700.463497693956, -0.062, 1.002, 0.10400000000000001, 192.0, 0.0, 0.0, 0.0, 0.0, 0.0, 0.0, 0.0, 0.0, 0.0, 1.681420983632321E9, 0.0, 2023-04-13 17:23:03.632
36.0, -6216.690685354553, 18763.015420796328, -31093.95874666676, -5020.447673850975, 22956.225032356386, -45360.02670049986, -4156.575102397812, -16722.5470212158, -0.062, 1.002, 0.10400000000000001, 192.0, 0.0, 0.0, 0.0, 0.0, 0.0, 0.0, 0.0, 0.0, 0.0, 1.68142098363234E9, 0.0, 2023-04-13 17:23:03.632
37.0, -6221.89864181264, 18764.91531907503, -31128.82746801704, -5000.241696863377, 23137.87765954467, -45393.84488986074, -4193.455480749069, -16759.382696078148, -0.062, 1.002, 0.10400000000000001, 192.0, 0.0, 0.0, 0.0, 0.0, 0.0, 0.0, 0.0, 0.0, 0.0, 1.6814209836323593E9, 0.0, 2023-04-13 17:23:03.632
38.0, -6260.678918442598, 18752.353638691144, -31130.72736629574, -5103.327942291253, 23105.19940915101, -45411.32395402479, -4187.286399279404, -16739.04260862382, -0.066, 0.99, 0.094, 192.0, 253.0, 240.0, 30.0, 240.0, 2.0, 240.0, 0.0, 0.0, 0.0, 1.6814209836323783E9, 0.0, 2023-04-13 17:23:03.632
39.0, -6268.837305168785, 18752.688914857976, -31103.502941549177, -5171.254893690932, 22925.49138373034, -45393.50961369391, -4152.149456995661, -16698.07186103724, -0.066, 0.99, 0.094, 192.0, 0.0, 0.0, 0.0, 0.0, 0.0, 0.0, 0.0, 0.0, 0.0, 1.6814209836323996E9, 0.0, 2023-04-13 17:23:03.632
40.0, -6213.9190690420955, 18770.838531355683, -31087.856720430464, -5052.991813777901, 22900.993871807324, -45364.56410462429, -4138.403134155647, -16706.856096608175, -0.066, 0.99, 0.094, 192.0, 0.0, 0.0, 0.0, 0.0, 0.0, 0.0, 0.0, 0.0, 0.0, 1.681420983632419E9, 0.0, 2023-04-13 17:23:03.632
41.0, -6211.952115530028, 18765.541167919775, -31128.760412783675, -4995.793699716771, 23090.536664788327, -45392.213212515504, -4180.6032276872675, -16756.611079765687, -0.066, 0.99, 0.094, 192.0, 0.0, 0.0, 0.0, 0.0, 0.0, 0.0, 0.0, 0.0, 0.0, 1.681420983632439E9, 0.0, 2023-04-13 17:23:03.632
42.0, -6251.648813682654, 18753.09124625817, -31140.53978211162, -5087.6146659391725, 23107.81456325228, -45414.18497731507, -4188.851021391275, -16748.050361639307, -0.066, 0.99, 0.094, 192.0, 0.0, 0.0, 0.0, 0.0, 0.0, 0.0, 0.0, 0.0, 0.0, 1.6814209836324584E9, 0.0, 2023-04-13 17:23:03.632
43.0, -6274.939331405084, 18742.787092064274, -31120.4455638463, -5174.652358848138, 22935.840241413145, -45405.40074174413, -4165.716965880032, -16711.125279799136, -0.066, 0.99, 0.094, 192.0, 0.0, 0.0, 0.0, 0.0, 0.0, 0.0, 0.0, 0.0, 0.0, 1.6814209836324813E9, 0.0, 2023-04-13 17:23:03.632
44.0, -6229.274717482891, 18758.075685271702, -31098.049115902082, -5081.043253069312, 22873.27770868274, -45373.41539542859, -4146.650927859656, -16709.292436753803, -0.066, 0.99, 0.094, 192.0, 0.0, 0.0, 0.0, 0.0, 0.0, 0.0, 0.0, 0.0, 0.0, 1.6814209836325006E9, 0.0, 2023-04-13 17:23:03.632
45.0, -6206.677103838576, 18768.111618532137, -31125.765279026662, -4987.724719968405, 23048.135405556608, -45388.68163689156, -4178.010425330452, -16752.61011750819, -0.066, 0.99, 0.094, 192.0, 0.0, 0.0, 0.0, 0.0, 0.0, 0.0, 0.0, 0.0, 0.0, 1.6814209836325195E9, 0.0, 2023-04-13 17:23:03.632
46.0, -6246.105581057737, 18757.382781193588, -31143.289046679623, -5063.474781927441, 23099.00797593689, -45415.99546861595, -4192.092024337295, -16753.325373330757, -0.066, 0.99, 0.094, 192.0, 0.0, 0.0, 0.0, 0.0, 0.0, 0.0, 0.0, 0.0, 0.0, 1.681420983632539E9, 0.0, 2023-04-13 17:23:03.632
47.0, -6272.927674404106, 18750.923127046004, -31123.284235392122, -5155.720431294493, 22946.166747351497, -45406.09364582225, -4164.7558408684545, -16712.824012377743, -0.066, 0.99, 0.094, 192.0, 0.0, 0.0, 0.0, 0.0, 0.0, 0.0, 0.0, 0.0, 0.0, 1.681420983632579E9, 0.0, 2023-04-13 17:23:03.632
48.0, -6239.534168187877, 18761.026115539804, -31098.16087462436, -5099.215221311477, 22852.647048550494, -45374.62238962918, -4141.6888405905775, -16699.703538382477, -0.062, 0.986, 0.098, 192.0, 254.0, 16.0, 30.0, 208.0, 3.0, 16.0, 0.0, 0.0, 0.0, 1.681420983632612E9, 0.0, 2023-04-13 17:23:03.632
49.0, -6203.1231764701815, 18774.593624424175, -31115.72934576623, -4978.60520823064, 23024.12963201161, -45379.38331119816, -4166.29811123587, -16739.78021619084, -0.062, 0.986, 0.098, 192.0, 0.0, 0.0, 0.0, 0.0, 0.0, 0.0, 0.0, 0.0, 0.0, 1.6814209836326334E9, 0.0, 2023-04-13 17:23:03.632
50.0, -6241.076438555293, 18759.685010872487, -31145.412462402877, -5042.687659584005, 23122.05262447031, -45414.69906743754, -4194.1036813382725, -16756.07463789876, -0.062, 0.986, 0.098, 192.0, 0.0, 0.0, 0.0, 0.0, 0.0, 0.0, 0.0, 0.0, 0.0, 1.6814209836326528E9, 0.0, 2023-04-13 17:23:03.632
51.0, -6273.106488359748, 18750.43138866799, -31133.230761674735, -5146.533864323362, 23013.199628972965, -45416.08487559377, -4178.479811964013, -16724.22340204995, -0.062, 0.986, 0.098, 192.0, 0.0, 0.0, 0.0, 0.0, 0.0, 0.0, 0.0, 0.0, 0.0, 1.6814209836326718E9, 0.0, 2023-04-13 17:23:03.632
52.0, -6242.775171133897, 18768.111618532137, -31096.685659490307, -5121.991648911435, 22862.593574833107, -45382.579610655266, -4146.494465648469, -16696.440183692, -0.062, 0.986, 0.098, 192.0, 0.0, 0.0, 0.0, 0.0, 0.0, 0.0, 0.0, 0.0, 0.0, 1.6814209836326911E9, 0.0, 2023-04-13 17:23:03.632
53.0, -6199.748063057431, 18780.09215356018, -31112.667156775853, -4985.958932156436, 22989.17150368351, -45383.339569966745, -4171.930750838608, -16742.037742380828, -0.062, 0.986, 0.098, 192.0, 0.0, 0.0, 0.0, 0.0, 0.0, 0.0, 0.0, 0.0, 0.0, 1.6814209836327102E9, 0.0, 2023-04-13 17:23:03.632
54.0, -6222.077455768283, 18769.56448192173, -31145.859497291985, -5021.475854095919, 23131.797985052825, -45422.45512276353, -4209.302867567882, -16769.79860899432, -0.062, 0.986, 0.098, 192.0, 0.0, 0.0, 0.0, 0.0, 0.0, 0.0, 0.0, 0.0, 0.0, 1.6814209836327293E9, 0.0, 2023-04-13 17:23:03.632
55.0, -6259.851903897751, 18755.19231023697, -31136.851744276497, -5126.909032691602, 23042.815690376246, -45429.89825366715, -4198.909306396164, -16740.942506902516, -0.062, 0.986, 0.098, 192.0, 0.0, 0.0, 0.0, 0.0, 0.0, 0.0, 0.0, 0.0, 0.0, 1.6814209836327555E9, 0.0, 2023-04-13 17:23:03.632
56.0, -6248.47486597, 18759.819121339217, -31105.894578205895, -5138.531939808362, 22882.91131054298, -45402.003276586925, -4168.6897478925885, -16709.180678031527, -0.062, 0.986, 0.098, 192.0, 0.0, 0.0, 0.0, 0.0, 0.0, 0.0, 0.0, 0.0, 0.0, 1.6814209836327977E9, 0.0, 2023-04-13 17:23:03.632
57.0, -6196.3729496446795, 18778.460476214943, -31109.06852591855, -5000.308752096743, 22968.607898784627, -45386.692331635044, -4178.233942775005, -16739.511995257377, -0.062, 0.986, 0.098, 192.0, 0.0, 0.0, 0.0, 0.0, 0.0, 0.0, 0.0, 0.0, 0.0, 1.6814209836328297E9, 0.0, 2023-04-13 17:23:03.632
58.0, -6205.6489235936315, 18776.694688402975, -31135.287122164624, -5002.722740497916, 23104.28298762834, -45411.860395891716, -4207.425321033636, -16761.84138796823, -0.07, 0.988, 0.08600000000000001, 192.0, 253.0, 208.0, 30.0, 224.0, 2.0, 176.0, 0.0, 0.0, 0.0, 1.681420983632852E9, 0.0, 2023-04-13 17:23:03.632
59.0, -6249.860674126229, 18756.645173626563, -31138.438718132824, -5105.406654525596, 23048.336571256707, -45425.65142222064, -4205.860698921764, -16743.75882670389, -0.07, 0.988, 0.08600000000000001, 192.0, 0.0, 0.0, 0.0, 0.0, 0.0, 0.0, 0.0, 0.0, 0.0, 1.6814209836328843E9, 0.0, 2023-04-13 17:23:03.632
60.0, -6254.822761395307, 18754.745275347865, -31113.471819576243, -5152.010041714912, 22880.76554307527, -45404.6184306882, -4176.8481346187755, -16709.87358210964, -0.07, 0.988, 0.08600000000000001, 192.0, 0.0, 0.0, 0.0, 0.0, 0.0, 0.0, 0.0, 0.0, 0.0, 1.6814209836329086E9, 0.0, 2023-04-13 17:23:03.632
61.0, -6212.600316119232, 18766.815217353727, -31110.700203263787, -5023.040476207791, 22931.39224426654, -45384.99359905644, -4180.267951520437, -16734.862832410676, -0.07, 0.988, 0.08600000000000001, 192.0, 0.0, 0.0, 0.0, 0.0, 0.0, 0.0, 0.0, 0.0, 0.0, 1.681420983632928E9, 0.0, 2023-04-13 17:23:03.632
62.0, -6219.507005155922, 18765.027077797306, -31138.97515999975, -4993.089138637679, 23115.369452878174, -45410.45223599103, -4213.2367745920155, -16769.150408405116, -0.07, 0.988, 0.08600000000000001, 192.0, 0.0, 0.0, 0.0, 0.0, 0.0, 0.0, 0.0, 0.0, 0.0, 1.681420983632947E9, 0.0, 2023-04-13 17:23:03.632
63.0, -6259.851903897751, 18750.029057267795, -31143.579619357544, -5093.62728519765, 23093.28592935633, -45429.11594261121, -4214.220251348049, -16754.621774509167, -0.07, 0.988, 0.08600000000000001, 192.0, 0.0, 0.0, 0.0, 0.0, 0.0, 0.0, 0.0, 0.0, 0.0, 1.681420983633031E9, 0.0, 2023-04-13 17:23:03.633
64.0, -6270.938369147583, 18744.08349324268, -31120.602026057488, -5161.263663919409, 22919.501116216317, -45413.670887192595, -4184.045396333385, -16719.373073503146, -0.07, 0.988, 0.08600000000000001, 192.0, 0.0, 0.0, 0.0, 0.0, 0.0, 0.0, 0.0, 0.0, 0.0, 1.6814209836330545E9, 0.0, 2023-04-13 17:23:03.633
65.0, -6224.826720336285, 18755.929917803995, -31108.2415113737, -5051.717764343949, 22915.656616170003, -45387.40758745761, -4174.434146217603, -16730.325428286247, -0.07, 0.988, 0.08600000000000001, 192.0, 0.0, 0.0, 0.0, 0.0, 0.0, 0.0, 0.0, 0.0, 0.0, 1.681420983633073E9, 0.0, 2023-04-13 17:23:03.633
66.0, -6212.242688207947, 18764.42358069701, -31133.320168652557, -4988.350568813154, 23077.86322568217, -45404.95370685503, -4202.776158186932, -16765.283556614348, -0.07, 0.988, 0.08600000000000001, 192.0, 0.0, 0.0, 0.0, 0.0, 0.0, 0.0, 0.0, 0.0, 0.0, 1.6814209836330926E9, 0.0, 2023-04-13 17:23:03.633
67.0, -6252.319366016312, 18747.883289800084, -31149.480479893744, -5078.182229779033, 23092.66008051158, -45431.61933799021, -4214.0637891368615, -16763.160140891094, -0.07, 0.988, 0.08600000000000001, 192.0, 0.0, 0.0, 0.0, 0.0, 0.0, 0.0, 0.0, 0.0, 0.0, 1.6814209836331117E9, 0.0, 2023-04-13 17:23:03.633
68.0, -6267.496200501466, 18744.91050778753, -31124.49122959271, -5165.063460476811, 22920.618703439082, -45420.08583785127, -4183.374843999725, -16720.580067703733, -0.07, 1.0, 0.08600000000000001, 192.0, 253.0, 208.0, 31.0, 64.0, 2.0, 176.0, 0.0, 0.0, 0.0, 1.6814209836331308E9, 0.0, 2023-04-13 17:23:03.633
69.0, -6227.240708737459, 18757.606298638144, -31106.721592750742, -5078.070471056756, 22866.818054535157, -45389.30748573631, -4166.8122013583425, -16722.234096793425, -0.07, 1.0, 0.08600000000000001, 192.0, 0.0, 0.0, 0.0, 0.0, 0.0, 0.0, 0.0, 0.0, 0.0, 1.6814209836331515E9, 0.0, 2023-04-13 17:23:03.633
70.0, -6204.620743348688, 18765.80938885324, -31132.4484506188, -4987.992940901869, 23043.37448398763, -45403.23262253197, -4199.177527329627, -16766.579957792754, -0.07, 1.0, 0.08600000000000001, 192.0, 0.0, 0.0, 0.0, 0.0, 0.0, 0.0, 0.0, 0.0, 0.0, 1.6814209836331706E9, 0.0, 2023-04-13 17:23:03.633
71.0, -6236.516682686411, 18755.013496281328, -31143.22199144626, -5059.76439234786, 23087.65328975359, -45424.46677976451, -4211.02395189094, -16765.17179789207, -0.07, 1.0, 0.08600000000000001, 192.0, 0.0, 0.0, 0.0, 0.0, 0.0, 0.0, 0.0, 0.0, 0.0, 1.6814209836331897E9, 0.0, 2023-04-13 17:23:03.633
72.0, -6263.606996966243, 18745.625763610096, -31123.239531903215, -5152.501780092929, 22947.530203763272, -45418.27534655039, -4190.97443711453, -16729.297248041305, -0.07, 1.0, 0.08600000000000001, 192.0, 0.0, 0.0, 0.0, 0.0, 0.0, 0.0, 0.0, 0.0, 0.0, 1.6814209836332088E9, 0.0, 2023-04-13 17:23:03.633
73.0, -6235.153226274637, 18749.17969097849, -31102.318299093047, -5107.060683615289, 22853.675228795437, -45392.45908170451, -4172.042509560884, -16719.529535714333, -0.07, 1.0, 0.08600000000000001, 192.0, 0.0, 0.0, 0.0, 0.0, 0.0, 0.0, 0.0, 0.0, 0.0, 1.6814209836332276E9, 0.0, 2023-04-13 17:23:03.633
74.0, -6208.174670717081, 18754.36529569212, -31127.106383693983, -4994.743167727372, 23017.80408833076, -45401.0645033198, -4199.848079663287, -16764.143617647125, -0.07, 1.0, 0.08600000000000001, 192.0, 0.0, 0.0, 0.0, 0.0, 0.0, 0.0, 0.0, 0.0, 0.0, 1.6814209836332467E9, 0.0, 2023-04-13 17:23:03.633
75.0, -6241.836397866774, 18741.825967052697, -31154.017884018172, -5052.85770331117, 23114.63184531115, -45435.642651992166, -4224.613812519767, -16778.404030609614, -0.07, 1.0, 0.08600000000000001, 192.0, 0.0, 0.0, 0.0, 0.0, 0.0, 0.0, 0.0, 0.0, 0.0, 1.6814209836332655E9, 0.0, 2023-04-13 17:23:03.633
76.0, -6270.580741236298, 18736.52860361679, -31139.48925012222, -5150.490123091951, 22990.378497884096, -45433.742753713464, -4206.68771346661, -16743.535309259332, -0.07, 1.0, 0.08600000000000001, 192.0, 0.0, 0.0, 0.0, 0.0, 0.0, 0.0, 0.0, 0.0, 0.0, 1.6814209836332843E9, 0.0, 2023-04-13 17:23:03.633
77.0, -6247.938424103073, 18749.47026365641, -31109.426153829834, -5134.329811850764, 22849.629563049028, -45400.393950986145, -4177.608093930256, -16719.350721758692, -0.07, 1.0, 0.08600000000000001, 192.0, 0.0, 0.0, 0.0, 0.0, 0.0, 0.0, 0.0, 0.0, 0.0, 1.6814209836333036E9, 0.0, 2023-04-13 17:23:03.633
78.0, -6207.504118383422, 18763.41775219652, -31119.797363257097, -5001.158118386044, 22972.430047086484, -45391.18503227056, -4193.142556326694, -16754.778236720354, -0.074, 1.002, 0.08, 192.0, 253.0, 176.0, 31.0, 80.0, 2.0, 128.0, 0.0, 0.0, 0.0, 1.6814209836333845E9, 0.0, 2023-04-13 17:23:03.633
79.0, -6230.302897727835, 18754.968792792417, -31145.07718623605, -5029.6789443110165, 23093.151818889597, -45418.70002969504, -4221.059885151373, -16772.92785321806, -0.074, 1.002, 0.08, 192.0, 0.0, 0.0, 0.0, 0.0, 0.0, 0.0, 0.0, 0.0, 0.0, 1.6814209836334052E9, 0.0, 2023-04-13 17:23:03.633
80.0, -6267.295034801368, 18741.580097863687, -31137.2987791656, -5129.255965859409, 23012.730242339403, -45426.545491998855, -4210.554565257378, -16745.41285579358, -0.074, 1.002, 0.08, 192.0, 0.0, 0.0, 0.0, 0.0, 0.0, 0.0, 0.0, 0.0, 0.0, 1.6814209836334243E9, 0.0, 2023-04-13 17:23:03.633
81.0, -6257.840246896773, 18745.446949654455, -31108.86736021845, -5146.735030023459, 22852.28942063921, -45402.293849264846, -4181.989035843496, -16717.294361268803, -0.074, 1.002, 0.08, 192.0, 0.0, 0.0, 0.0, 0.0, 0.0, 0.0, 0.0, 0.0, 0.0, 1.6814209836334436E9, 0.0, 2023-04-13 17:23:03.633
82.0, -6206.945324772039, 18760.28850797278, -31115.081145177028, -5012.490452824885, 22935.14733733503, -45387.47464269098, -4192.919038882142, -16747.46921628347, -0.074, 1.002, 0.08, 192.0, 0.0, 0.0, 0.0, 0.0, 0.0, 0.0, 0.0, 0.0, 0.0, 1.681420983633463E9, 0.0, 2023-04-13 17:23:03.633
83.0, -6217.271830710391, 18758.23214748289, -31144.652503091398, -5015.105606926156, 23075.51629251436, -45414.49790173744, -4222.177472374138, -16771.720859017474, -0.074, 1.002, 0.08, 192.0, 0.0, 0.0, 0.0, 0.0, 0.0, 0.0, 0.0, 0.0, 0.0, 1.6814209836334817E9, 0.0, 2023-04-13 17:23:03.633
84.0, -6255.560368962332, 18743.591754864665, -31143.311398424077, -5113.565041251783, 23011.813820816737, -45424.89146290916, -4216.45542579358, -16750.374943062656, -0.074, 1.002, 0.08, 192.0, 0.0, 0.0, 0.0, 0.0, 0.0, 0.0, 0.0, 0.0, 0.0, 1.681420983633514E9, 0.0, 2023-04-13 17:23:03.633
85.0, -6259.203703308547, 18744.061141498227, -31117.562188811564, -5164.012928487412, 22843.75105425728, -45408.17235805659, -4188.605152202267, -16718.344893258203, -0.074, 1.002, 0.08, 192.0, 0.0, 0.0, 0.0, 0.0, 0.0, 0.0, 0.0, 0.0, 0.0, 1.6814209836335332E9, 0.0, 2023-04-13 17:23:03.633
86.0, -6207.012380005405, 18765.27294698631, -31110.29787186359, -5035.4903978693965, 22880.787894819725, -45387.966381068996, -4187.621675446234, -16741.054265624793, -0.074, 1.002, 0.08, 192.0, 0.0, 0.0, 0.0, 0.0, 0.0, 0.0, 0.0, 0.0, 0.0, 1.681420983633556E9, 0.0, 2023-04-13 17:23:03.633
87.0, -6207.32530442778, 18768.849226099162, -31139.53395361113, -5002.700388753461, 23056.293792282795, -45412.88857613666, -4220.702257240088, -16775.56535906379, -0.074, 1.002, 0.08, 192.0, 0.0, 0.0, 0.0, 0.0, 0.0, 0.0, 0.0, 0.0, 0.0, 1.6814209836335752E9, 0.0, 2023-04-13 17:23:03.633
88.0, -6251.201778793547, 18755.43817942598, -31146.284180436636, -5098.5893724667285, 23042.793338631793, -45429.87590192269, -4224.233832864026, -16761.729629245954, -0.07, 1.006, 0.076, 192.0, 253.0, 208.0, 31.0, 112.0, 2.0, 96.0, 0.0, 0.0, 0.0, 1.6814209836335945E9, 0.0, 2023-04-13 17:23:03.633
89.0, -6266.490372000978, 18748.173862478, -31124.35711912598, -5169.846733790247, 22875.75875231728, -45416.12957908268, -4197.8587744067645, -16726.056245095282, -0.07, 1.006, 0.076, 192.0, 0.0, 0.0, 0.0, 0.0, 0.0, 0.0, 0.0, 0.0, 0.0, 1.6814209836336148E9, 0.0, 2023-04-13 17:23:03.633
90.0, -6223.396208691145, 18756.958098048937, -31112.890674220405, -5062.468953426952, 22861.43128412143, -45392.12380553768, -4187.286399279404, -16735.578088233244, -0.07, 1.006, 0.076, 192.0, 0.0, 0.0, 0.0, 0.0, 0.0, 0.0, 0.0, 0.0, 0.0, 1.6814209836336372E9, 0.0, 2023-04-13 17:23:03.633
91.0, -6207.146490472137, 18768.93863307698, -31138.68458732183, -4992.284475837288, 23038.814728118745, -45409.692276679554, -4215.807225204376, -16771.31852761728, -0.07, 1.006, 0.076, 192.0, 0.0, 0.0, 0.0, 0.0, 0.0, 0.0, 0.0, 0.0, 0.0, 1.6814209836336565E9, 0.0, 2023-04-13 17:23:03.633
92.0, -6246.172636291103, 18754.834682325683, -31150.77688107215, -5080.350348991197, 23052.046960836287, -45433.65334673564, -4225.709047998077, -16764.188321136036, -0.07, 1.006, 0.076, 192.0, 0.0, 0.0, 0.0, 0.0, 0.0, 0.0, 0.0, 0.0, 0.0, 1.681420983633675E9, 0.0, 2023-04-13 17:23:03.633
93.0, -6270.178409836103, 18743.07766474219, -31128.02280521665, -5164.906998265624, 22885.459409410883, -45423.05861986383, -4198.864602907253, -16724.670436939054, -0.07, 1.006, 0.076, 192.0, 0.0, 0.0, 0.0, 0.0, 0.0, 0.0, 0.0, 0.0, 0.0, 1.6814209836337144E9, 0.0, 2023-04-13 17:23:03.633
94.0, -6230.973450061495, 18754.097074758658, -31109.806133485574, -5084.48542171543, 22823.81329820315, -45393.71077939401, -4183.263085277448, -16723.664608438565, -0.07, 1.006, 0.076, 192.0, 0.0, 0.0, 0.0, 0.0, 0.0, 0.0, 0.0, 0.0, 0.0, 1.681420983633734E9, 0.0, 2023-04-13 17:23:03.633
95.0, -6204.08430148176, 18763.216586496423, -31134.705976808786, -4986.964760656924, 23006.963492269933, -45402.85264287623, -4214.711989726065, -16767.496379315424, -0.07, 1.006, 0.076, 192.0, 0.0, 0.0, 0.0, 0.0, 0.0, 0.0, 0.0, 0.0, 0.0, 1.681420983633753E9, 0.0, 2023-04-13 17:23:03.633
96.0, -6238.193063520559, 18754.342943947668, -31150.88863979443, -5057.7974388357925, 23075.046905880798, -45427.50661701043, -4231.386391089724, -16770.46916132798, -0.07, 1.006, 0.076, 192.0, 0.0, 0.0, 0.0, 0.0, 0.0, 0.0, 0.0, 0.0, 0.0, 1.6814209836337764E9, 0.0, 2023-04-13 17:23:03.633
97.0, -6262.087078343282, 18750.52079564581, -31129.140392439414, -5150.557178325317, 22933.985046623355, -45419.50469249543, -4207.648838478189, -16732.046512609304, -0.07, 1.006, 0.076, 192.0, 0.0, 0.0, 0.0, 0.0, 0.0, 0.0, 0.0, 0.0, 0.0, 1.6814209836338103E9, 0.0, 2023-04-13 17:23:03.633
98.0, -6229.721752371997, 18761.249632984356, -31102.385354326412, -5099.9975323674125, 22837.626676276526, -45388.54752642483, -4183.35249225527, -16720.043625836806, -0.07, 1.01, 0.082, 192.0, 253.0, 208.0, 31.0, 144.0, 2.0, 144.0, 0.0, 0.0, 0.0, 1.6814209836338456E9, 0.0, 2023-04-13 17:23:03.633
99.0, -6195.791804288841, 18774.437162212987, -31120.512619079665, -4976.638254718573, 23009.533942882295, -45389.59805841423, -4208.140576856205, -16760.142655389627, -0.07, 1.01, 0.082, 192.0, 0.0, 0.0, 0.0, 0.0, 0.0, 0.0, 0.0, 0.0, 0.0, 1.6814209836338663E9, 0.0, 2023-04-13 17:23:03.633
100.0, -6233.655659396131, 18760.176749250502, -31148.765224071172, -5029.455426866463, 23107.81456325228, -45419.03530586187, -4234.9626702025735, -16774.917158474585, -0.07, 1.01, 0.082, 192.0, 0.0, 0.0, 0.0, 0.0, 0.0, 0.0, 0.0, 0.0, 0.0, 1.6814209836338856E9, 0.0, 2023-04-13 17:23:03.633
101.0, -6273.732337204497, 18745.536356632278, -31140.003340244693, -5131.982878682957, 22995.36293689763, -45422.58923323026, -4220.054056650884, -16744.18350984854, -0.07, 1.01, 0.082, 192.0, 0.0, 0.0, 0.0, 0.0, 0.0, 0.0, 0.0, 0.0, 0.0, 1.6814209836339047E9, 0.0, 2023-04-13 17:23:03.633
102.0, -6252.028793338393, 18752.51010090233, -31109.806133485574, -5117.9012796761135, 22842.29819086769, -45389.84392760324, -4184.738300411499, -16716.02031183485, -0.07, 1.01, 0.082, 192.0, 0.0, 0.0, 0.0, 0.0, 0.0, 0.0, 0.0, 0.0, 0.0, 1.6814209836339235E9, 0.0, 2023-04-13 17:23:03.633
103.0, -6214.477862653478, 18762.300164973756, -31129.67683430634, -4987.7694234573155, 22978.241500644865, -45386.5135176794, -4204.363132043259, -16758.13099838865, -0.07, 1.01, 0.082, 192.0, 0.0, 0.0, 0.0, 0.0, 0.0, 0.0, 0.0, 0.0, 0.0, 1.681420983633943E9, 0.0, 2023-04-13 17:23:03.633
104.0, -6234.192101263059, 18760.690839372975, -31153.68260785134, -5014.5915168036845, 23097.13042940264, -45412.86622439221, -4224.83732996432, -16771.631452039655, -0.07, 1.01, 0.082, 192.0, 0.0, 0.0, 0.0, 0.0, 0.0, 0.0, 0.0, 0.0, 0.0, 1.681420983633962E9, 0.0, 2023-04-13 17:23:03.633
105.0, -6276.503953516955, 18739.255516440335, -31151.82741306155, -5115.576698252761, 23015.99359702988, -45419.32587853979, -4216.433074049124, -16749.905556429097, -0.07, 1.01, 0.082, 192.0, 0.0, 0.0, 0.0, 0.0, 0.0, 0.0, 0.0, 0.0, 0.0, 1.6814209836339808E9, 0.0, 2023-04-13 17:23:03.633
106.0, -6271.497162758967, 18738.80848155123, -31126.01114821567, -5140.722410764982, 22863.04060972221, -45399.052846318824, -4189.5886289583, -16724.290457283314, -0.07, 1.01, 0.082, 192.0, 0.0, 0.0, 0.0, 0.0, 0.0, 0.0, 0.0, 0.0, 0.0, 1.6814209836339996E9, 0.0, 2023-04-13 17:23:03.633
107.0, -6221.652772623632, 18755.974621292906, -31129.87800000644, -5005.94139169948, 22951.799386954237, -45386.87114559068, -4198.238754062504, -16757.236928610437, -0.07, 1.01, 0.082, 192.0, 0.0, 0.0, 0.0, 0.0, 0.0, 0.0, 0.0, 0.0, 0.0, 1.6814209836340237E9, 0.0, 2023-04-13 17:23:03.634
108.0, -6232.9404035735615, 18755.147606748058, -31159.65052362091, -5006.813109733237, 23107.836914996733, -45415.66019244912, -4229.93352770013, -16783.902559745617, -0.066, 1.01, 0.088, 192.0, 253.0, 240.0, 31.0, 144.0, 2.0, 192.0, 0.0, 0.0, 0.0, 1.6814209836340427E9, 0.0, 2023-04-13 17:23:03.634
109.0, -6267.496200501466, 18747.212737466423, -31151.49213689472, -5097.58354396624, 23040.46875720844, -45417.22481456099, -4217.1706816161495, -16756.588728021234, -0.066, 1.01, 0.088, 192.0, 0.0, 0.0, 0.0, 0.0, 0.0, 0.0, 0.0, 0.0, 0.0, 1.6814209836340868E9, 0.0, 2023-04-13 17:23:03.634
110.0, -6275.252255827458, 18744.262307198325, -31128.380433127935, -5145.572739311783, 22875.021144750255, -45397.48822420695, -4190.549753969879, -16724.78219566133, -0.066, 1.01, 0.088, 192.0, 0.0, 0.0, 0.0, 0.0, 0.0, 0.0, 0.0, 0.0, 0.0, 1.6814209836341064E9, 0.0, 2023-04-13 17:23:03.634
111.0, -6218.9705632889945, 18763.127179518604, -31119.104459178983, -5011.954010957958, 22916.036595825746, -45373.01306402839, -4188.649855691177, -16742.775349947853, -0.066, 1.01, 0.088, 192.0, 0.0, 0.0, 0.0, 0.0, 0.0, 0.0, 0.0, 0.0, 0.0, 1.6814209836341255E9, 0.0, 2023-04-13 17:23:03.634
112.0, -6217.0930167547485, 18766.167016764524, -31148.072319993058, -4976.41473727402, 23085.351060074696, -45397.97996258497, -4223.205652619083, -16777.59936780922, -0.066, 1.01, 0.088, 192.0, 0.0, 0.0, 0.0, 0.0, 0.0, 0.0, 0.0, 0.0, 0.0, 1.6814209836341443E9, 0.0, 2023-04-13 17:23:03.634
113.0, -6255.180389306592, 18752.420693924512, -31151.045102005613, -5070.046194797301, 23070.151873845087, -45414.855529648725, -4223.898556697197, -16765.864701970186, -0.066, 1.01, 0.088, 192.0, 0.0, 0.0, 0.0, 0.0, 0.0, 0.0, 0.0, 0.0, 0.0, 1.6814209836341636E9, 0.0, 2023-04-13 17:23:03.634
114.0, -6268.9267121466055, 18743.189423464468, -31129.83329651753, -5146.690326534549, 22907.922912588467, -45405.40074174413, -4198.372864529236, -16731.532422486835, -0.066, 1.01, 0.088, 192.0, 0.0, 0.0, 0.0, 0.0, 0.0, 0.0, 0.0, 0.0, 0.0, 1.6814209836341827E9, 0.0, 2023-04-13 17:23:03.634
115.0, -6219.7305226004755, 18759.394438194566, -31115.86345623296, -5036.51857811434, 22891.404973435998, -45374.3094652068, -4183.508954466457, -16735.17575683305, -0.066, 1.01, 0.088, 192.0, 0.0, 0.0, 0.0, 0.0, 0.0, 0.0, 0.0, 0.0, 0.0, 1.681420983634202E9, 0.0, 2023-04-13 17:23:03.634
116.0, -6212.935592286061, 18762.210757995934, -31150.866288049972, -4970.044490104257, 23076.924452415045, -45394.13546253866, -4216.567184515856, -16776.504132330912, -0.066, 1.01, 0.088, 192.0, 0.0, 0.0, 0.0, 0.0, 0.0, 0.0, 0.0, 0.0, 0.0, 1.6814209836342213E9, 0.0, 2023-04-13 17:23:03.634
117.0, -6252.14055206067, 18750.72196134591, -31162.77976784465, -5052.053040510779, 23090.827237466245, -45413.51442498141, -4222.8703764522525, -16770.558568305798, -0.066, 1.01, 0.088, 192.0, 0.0, 0.0, 0.0, 0.0, 0.0, 0.0, 0.0, 0.0, 0.0, 1.68142098363424E9, 0.0, 2023-04-13 17:23:03.634
118.0, -6275.7886976943855, 18744.977563020893, -31141.83618329003, -5137.2131868854985, 22935.77318617978, -45402.40560798712, -4198.864602907253, -16733.901707399094, -0.06, 1.004, 0.096, 192.0, 254.0, 32.0, 31.0, 96.0, 3.0, 0.0, 0.0, 0.0, 0.0, 1.6814209836342592E9, 0.0, 2023-04-13 17:23:03.634
119.0, -6234.7061913855305, 18756.645173626563, -31118.500962078688, -5057.417459180053, 22861.788912032716, -45372.566029139285, -4178.479811964013, -16728.961971874473, -0.06, 1.004, 0.096, 192.0, 0.0, 0.0, 0.0, 0.0, 0.0, 0.0, 0.0, 0.0, 0.0, 1.6814209836342795E9, 0.0, 2023-04-13 17:23:03.634
120.0, -6212.645019608142, 18762.90366207405, -31144.07135773556, -4961.9978621003465, 23038.010065318354, -45384.07717753377, -4208.364094300759, -16772.79374275133, -0.06, 1.004, 0.096, 192.0, 0.0, 0.0, 0.0, 0.0, 0.0, 0.0, 0.0, 0.0, 0.0, 1.6814209836343112E9, 0.0, 2023-04-13 17:23:03.634
121.0, -6251.9617381050275, 18750.65490611254, -31160.87986956595, -5033.098761212678, 23103.85830448369, -45408.06059933431, -4223.898556697197, -16777.867588742683, -0.06, 1.004, 0.096, 192.0, 0.0, 0.0, 0.0, 0.0, 0.0, 0.0, 0.0, 0.0, 0.0, 1.6814209841107016E9, 0.0, 2023-04-13 17:23:04.110
122.0, -6283.209476853547, 18738.003818750836, -31146.12771822545, -5131.1111606491995, 22974.30759362073, -45406.719494667, -4206.0171611329515, -16746.21751859397, -0.06, 1.004, 0.096, 192.0, 0.0, 0.0, 0.0, 0.0, 0.0, 0.0, 0.0, 0.0, 0.0, 1.681420984110921E9, 0.0, 2023-04-13 17:23:04.110
123.0, -6252.408772994134, 18743.256478697836, -31121.317281880056, -5087.346445005709, 22870.170816203456, -45376.65639837461, -4183.196030044082, -16732.895878898606, -0.06, 1.004, 0.096, 192.0, 0.0, 0.0, 0.0, 0.0, 0.0, 0.0, 0.0, 0.0, 0.0, 1.6814209841109686E9, 0.0, 2023-04-13 17:23:04.110
124.0, -6218.27765921088, 18754.544109647766, -31138.081090221538, -4965.909417380026, 23026.007178545857, -45377.12578500817, -4205.011332632463, -16772.212597395494, -0.06, 1.004, 0.096, 192.0, 0.0, 0.0, 0.0, 0.0, 0.0, 0.0, 0.0, 0.0, 0.0, 1.68142098411108E9, 0.0, 2023-04-13 17:23:04.111
125.0, -6249.480694470489, 18742.250650197348, -31161.12573875496, -5017.229022649411, 23117.515220345882, -45403.29967776533, -4224.055018908384, -16781.80149576682, -0.06, 1.004, 0.096, 192.0, 0.0, 0.0, 0.0, 0.0, 0.0, 0.0, 0.0, 0.0, 0.0, 1.6814209841111188E9, 0.0, 2023-04-13 17:23:04.111
126.0, -6288.8197647118295, 18723.18461217697, -31153.32497994006, -5119.711770976994, 23004.88478003559, -45406.65243943363, -4209.97341990154, -16753.727704730954, -0.06, 1.004, 0.096, 192.0, 0.0, 0.0, 0.0, 0.0, 0.0, 0.0, 0.0, 0.0, 0.0, 1.6814209841111548E9, 0.0, 2023-04-13 17:23:04.111
127.0, -6274.7381657049855, 18726.4703186119, -31125.92174123785, -5113.721503462971, 22861.878319010535, -45381.9090583216, -4182.503125965968, -16731.5994777202, -0.06, 1.004, 0.096, 192.0, 0.0, 0.0, 0.0, 0.0, 0.0, 0.0, 0.0, 0.0, 0.0, 1.6814209841112158E9, 0.0, 2023-04-13 17:23:04.111
128.0, -6228.246537237947, 18744.46347289842, -31134.571866342056, -4978.2252285749, 22986.288128648775, -45376.67875011906, -4197.814070917853, -16769.21746363848, -0.056, 1.004, 0.096, 192.0, 254.0, 64.0, 31.0, 96.0, 3.0, 0.0, 0.0, 0.0, 0.0, 1.6814209841112635E9, 0.0, 2023-04-13 17:23:04.111
129.0, -6246.776133391397, 18739.38962690707, -31164.567907401077, -5006.65664752205, 23121.82910702576, -45410.42988424658, -4230.268803866959, -16796.017205240394, -0.056, 1.004, 0.096, 192.0, 0.0, 0.0, 0.0, 0.0, 0.0, 0.0, 0.0, 0.0, 0.0, 1.681420984111302E9, 0.0, 2023-04-13 17:23:04.111
130.0, -6277.107450617248, 18735.411016394024, -31156.901259052906, -5108.781767938348, 23033.942047827488, -45417.13540758317, -4219.919946184153, -16770.17858865006, -0.056, 1.004, 0.096, 192.0, 0.0, 0.0, 0.0, 0.0, 0.0, 0.0, 0.0, 0.0, 0.0, 1.6814209841113343E9, 0.0, 2023-04-13 17:23:04.111
131.0, -6262.265892298925, 18744.75404557634, -31124.625340059443, -5125.612631513194, 22863.465292866862, -45386.200593257025, -4186.437032990102, -16733.968762632463, -0.056, 1.004, 0.096, 192.0, 0.0, 0.0, 0.0, 0.0, 0.0, 0.0, 0.0, 0.0, 0.0, 1.6814209841113684E9, 0.0, 2023-04-13 17:23:04.111
132.0, -6212.980295774973, 18753.292411958268, -31127.419308116354, -4985.601304245151, 22959.89071844706, -45366.419299414076, -4195.847117405787, -16762.40018157961, -0.056, 1.004, 0.096, 192.0, 0.0, 0.0, 0.0, 0.0, 0.0, 0.0, 0.0, 0.0, 0.0, 1.6814209841114004E9, 0.0, 2023-04-13 17:23:04.111
133.0, -6223.686781369064, 18748.3750281781, -31154.643732862918, -4979.342815797665, 23117.29170290133, -45390.715645637, -4225.351420086792, -16789.155219692617, -0.056, 1.004, 0.096, 192.0, 0.0, 0.0, 0.0, 0.0, 0.0, 0.0, 0.0, 0.0, 0.0, 1.6814209841114385E9, 0.0, 2023-04-13 17:23:04.111
134.0, -6263.271720799413, 18736.640362339065, -31160.2540207212, -5078.9868925794235, 23071.71649595696, -45409.04407609035, -4227.273670109948, -16777.822885253776, -0.056, 1.004, 0.096, 192.0, 0.0, 0.0, 0.0, 0.0, 0.0, 0.0, 0.0, 0.0, 0.0, 1.681420984111477E9, 0.0, 2023-04-13 17:23:04.111
135.0, -6270.580741236298, 18736.90858327253, -31133.34252039701, -5132.720486249982, 22904.34663347562, -45390.670942148085, -4198.6410854627, -16742.596535992212, -0.056, 1.004, 0.096, 192.0, 0.0, 0.0, 0.0, 0.0, 0.0, 0.0, 0.0, 0.0, 0.0, 1.6814209841115153E9, 0.0, 2023-04-13 17:23:04.111
136.0, -6218.7917493333525, 18753.985316036382, -31119.551494068088, -5000.174641630011, 22923.63618894055, -45355.19872369751, -4188.180469057616, -16751.716047729977, -0.056, 1.004, 0.096, 192.0, 0.0, 0.0, 0.0, 0.0, 0.0, 0.0, 0.0, 0.0, 0.0, 1.6814209841115537E9, 0.0, 2023-04-13 17:23:04.111
137.0, -6220.8481098232405, 18751.303106701747, -31152.27444795066, -4961.975510355891, 23093.308281100784, -45377.684578619555, -4222.713914241065, -16786.338899891245, -0.056, 1.004, 0.096, 192.0, 0.0, 0.0, 0.0, 0.0, 0.0, 0.0, 0.0, 0.0, 0.0, 1.6814209841116111E9, 0.0, 2023-04-13 17:23:04.111
138.0, -6265.842171411774, 18732.594696592652, -31162.668009122375, -5057.059831268768, 23085.954557174988, -45398.56110794081, -4229.531196299934, -16779.119286432182, -0.056, 1.002, 0.096, 192.0, 254.0, 64.0, 31.0, 80.0, 3.0, 0.0, 0.0, 0.0, 0.0, 1.6814209841116502E9, 0.0, 2023-04-13 17:23:04.111
139.0, -6284.237657098492, 18723.676350554986, -31140.875058278452, -5135.44739907353, 22918.741156904838, -45390.35801772571, -4203.826690176331, -16745.725780215955, -0.056, 1.002, 0.096, 192.0, 0.0, 0.0, 0.0, 0.0, 0.0, 0.0, 0.0, 0.0, 0.0, 1.6814209841116912E9, 0.0, 2023-04-13 17:23:04.111
140.0, -6235.108522785727, 18742.004781008338, -31122.88190399193, -5029.053095466268, 22892.880188570045, -45361.43486040054, -4190.661512692155, -16749.592632006723, -0.056, 1.002, 0.096, 192.0, 0.0, 0.0, 0.0, 0.0, 0.0, 0.0, 0.0, 0.0, 0.0, 1.6814209841117857E9, 0.0, 2023-04-13 17:23:04.111
141.0, -6214.723731842486, 18756.823987582207, -31145.390110658424, -4955.493504463852, 23065.61446972066, -45374.64474137363, -4218.847062450297, -16786.69652780253, -0.056, 1.002, 0.096, 192.0, 0.0, 0.0, 0.0, 0.0, 0.0, 0.0, 0.0, 0.0, 0.0, 1.681420984111826E9, 0.0, 2023-04-13 17:23:04.111
142.0, -6255.560368962332, 18738.94259201796, -31160.410482932388, -5041.078333983223, 23098.784458492337, -45396.79532012884, -4228.301850354892, -16784.640167312642, -0.056, 1.002, 0.096, 192.0, 0.0, 0.0, 0.0, 0.0, 0.0, 0.0, 0.0, 0.0, 0.0, 1.68142098411186E9, 0.0, 2023-04-13 17:23:04.111
143.0, -6282.851848942262, 18729.89013551356, -31141.232686189735, -5131.044105415834, 22946.189099095955, -45387.65345664662, -4204.609001232267, -16748.586803506234, -0.056, 1.002, 0.096, 192.0, 0.0, 0.0, 0.0, 0.0, 0.0, 0.0, 0.0, 0.0, 0.0, 1.6814209841118898E9, 0.0, 2023-04-13 17:23:04.111
144.0, -6245.055049068338, 18746.56453687722, -31124.625340059443, -5056.702203357483, 22883.67126985446, -45361.41250865609, -4191.175602814627, -16749.92790817355, -0.056, 1.002, 0.096, 192.0, 0.0, 0.0, 0.0, 0.0, 0.0, 0.0, 0.0, 0.0, 0.0, 1.6814209841119196E9, 0.0, 2023-04-13 17:23:04.111
145.0, -6215.818967320796, 18754.253536969845, -31148.765224071172, -4958.890969621059, 23047.956591600967, -45373.12482275067, -4221.439864807113, -16791.435097627058, -0.056, 1.002, 0.096, 192.0, 0.0, 0.0, 0.0, 0.0, 0.0, 0.0, 0.0, 0.0, 0.0, 1.6814209841119668E9, 0.0, 2023-04-13 17:23:04.111
146.0, -6249.167770048114, 18741.6248013526, -31162.332732955547, -5023.3981041190755, 23105.95936846249, -45395.431863717065, -4233.621565535255, -16792.70914706101, -0.056, 1.002, 0.096, 192.0, 0.0, 0.0, 0.0, 0.0, 0.0, 0.0, 0.0, 0.0, 0.0, 1.6814209841120045E9, 0.0, 2023-04-13 17:23:04.112
147.0, -6281.801316952863, 18725.59860057814, -31155.291933452125, -5123.288050089843, 22977.414486100017, -45398.89638410764, -4219.78583571742, -16765.618832781176, -0.056, 1.002, 0.096, 192.0, 0.0, 0.0, 0.0, 0.0, 0.0, 0.0, 0.0, 0.0, 0.0, 1.681420984112044E9, 0.0, 2023-04-13 17:23:04.112
148.0, -6244.920938601606, 18737.37796990609, -31120.82554350204, -5080.462107713474, 22875.356420917087, -45367.29101744783, -4188.806317902365, -16746.709256971986, -0.056, 1.004, 0.098, 192.0, 254.0, 64.0, 31.0, 96.0, 3.0, 16.0, 0.0, 0.0, 0.0, 1.6814209841120834E9, 0.0, 2023-04-13 17:23:04.112
149.0, -6203.056121236816, 18754.097074758658, -31133.387223885922, -4955.024117830291, 23025.60484714566, -45363.5582761238, -4202.776158186932, -16780.728612032963, -0.056, 1.004, 0.098, 192.0, 0.0, 0.0, 0.0, 0.0, 0.0, 0.0, 0.0, 0.0, 0.0, 1.6814209841121202E9, 0.0, 2023-04-13 17:23:04.112
150.0, -6229.609993649721, 18745.491653143366, -31152.27444795066, -5002.186298630989, 23125.606551838704, -45392.05675030431, -4223.004486918984, -16792.820905783286, -0.056, 1.004, 0.098, 192.0, 0.0, 0.0, 0.0, 0.0, 0.0, 0.0, 0.0, 0.0, 0.0, 1.6814209841121595E9, 0.0, 2023-04-13 17:23:04.112
151.0, -6263.361127777234, 18734.09226347116, -31139.3998431444, -5102.478576001951, 23017.446460419473, -45394.20251777202, -4207.626486733733, -16763.674231013567, -0.056, 1.004, 0.098, 192.0, 0.0, 0.0, 0.0, 0.0, 0.0, 0.0, 0.0, 0.0, 0.0, 1.6814209841122088E9, 0.0, 2023-04-13 17:23:04.112
152.0, -6246.507912457933, 18741.960077519427, -31106.00633692817, -5093.001436352902, 22867.242737679808, -45363.51357263489, -4174.456497962057, -16736.49450975591, -0.056, 1.004, 0.098, 192.0, 0.0, 0.0, 0.0, 0.0, 0.0, 0.0, 0.0, 0.0, 0.0, 1.6814209841122468E9, 0.0, 2023-04-13 17:23:04.112
153.0, -6207.928801528073, 18752.264231713325, -31121.02670920214, -4965.194161557456, 22998.559236354737, -45360.42903190006, -4194.528364482923, -16777.353498620214, -0.056, 1.004, 0.098, 192.0, 0.0, 0.0, 0.0, 0.0, 0.0, 0.0, 0.0, 0.0, 0.0, 1.6814209841122837E9, 0.0, 2023-04-13 17:23:04.112
154.0, -6228.85003433824, 18744.485824642878, -31148.564058371077, -4993.960856671436, 23128.847554784723, -45389.82157585878, -4221.55162352939, -16795.816039540296, -0.056, 1.004, 0.098, 192.0, 0.0, 0.0, 0.0, 0.0, 0.0, 0.0, 0.0, 0.0, 0.0, 1.681420984112324E9, 0.0, 2023-04-13 17:23:04.112
155.0, -6261.7070986875415, 18731.27594366979, -31142.59614260151, -5089.62632294015, 23041.60869617566, -45394.515442194395, -4208.542908256401, -16767.764600248887, -0.056, 1.004, 0.098, 192.0, 0.0, 0.0, 0.0, 0.0, 0.0, 0.0, 0.0, 0.0, 0.0, 1.6814209841124253E9, 0.0, 2023-04-13 17:23:04.112
156.0, -6252.274662527402, 18737.445025139456, -31115.796400999596, -5112.290991817831, 22872.405990648986, -45372.74484309493, -4178.524515452924, -16737.254469067393, -0.056, 1.004, 0.098, 192.0, 0.0, 0.0, 0.0, 0.0, 0.0, 0.0, 0.0, 0.0, 0.0, 1.6814209841124635E9, 0.0, 2023-04-13 17:23:04.112
157.0, -6203.5925631037435, 18753.00183928035, -31120.713784779764, -4976.347682040654, 22956.850881201135, -45360.205514455505, -4189.365111513747, -16772.36905960668, -0.056, 1.004, 0.098, 192.0, 0.0, 0.0, 0.0, 0.0, 0.0, 0.0, 0.0, 0.0, 0.0, 1.681420984112492E9, 0.0, 2023-04-13 17:23:04.112
158.0, -6221.630420879176, 18744.5752316207, -31162.019808533172, -4980.616865231617, 23123.9078192601, -45397.532927695866, -4232.436923079124, -16812.959827537517, -0.066, 0.994, 0.098, 192.0, 253.0, 240.0, 31.0, 16.0, 3.0, 16.0, 0.0, 0.0, 0.0, 1.6814209841125257E9, 0.0, 2023-04-13 17:23:04.112
159.0, -6262.71292718803, 18731.097129714148, -31158.868212564972, -5082.585523436728, 23077.7961704488, -45412.620355203195, -4232.526330056945, -16794.027899983874, -0.066, 0.994, 0.098, 192.0, 0.0, 0.0, 0.0, 0.0, 0.0, 0.0, 0.0, 0.0, 0.0, 1.6814209841125696E9, 0.0, 2023-04-13 17:23:04.112
160.0, -6265.551598733855, 18732.773510548297, -31127.598122072, -5137.839035730247, 22894.355403704096, -45394.806014872316, -4203.73728319851, -16758.712143744488, -0.066, 0.994, 0.098, 192.0, 0.0, 0.0, 0.0, 0.0, 0.0, 0.0, 0.0, 0.0, 0.0, 1.6814209841126077E9, 0.0, 2023-04-13 17:23:04.112
161.0, -6215.349580687235, 18748.173862478, -31123.150124925392, -5016.9384499714915, 22921.02103483928, -45377.192840241536, -4206.173623344138, -16781.443867855534, -0.066, 0.994, 0.098, 192.0, 0.0, 0.0, 0.0, 0.0, 0.0, 0.0, 0.0, 0.0, 0.0, 1.681420984112647E9, 0.0, 2023-04-13 17:23:04.112
162.0, -6212.957944030517, 18750.118464245614, -31150.59806711651, -4981.242714076366, 23087.27331009785, -45401.95857309802, -4238.6507080377, -16815.23970547196, -0.066, 0.994, 0.098, 192.0, 0.0, 0.0, 0.0, 0.0, 0.0, 0.0, 0.0, 0.0, 0.0, 1.6814209841126804E9, 0.0, 2023-04-13 17:23:04.112
163.0, -6256.0074038514385, 18731.5218128588, -31159.4046544319, -5077.5787326787395, 23079.584310005226, -45423.01391637491, -4241.802304005898, -16803.907371033118, -0.066, 0.994, 0.098, 192.0, 0.0, 0.0, 0.0, 0.0, 0.0, 0.0, 0.0, 0.0, 0.0, 1.6814209841127093E9, 0.0, 2023-04-13 17:23:04.112
164.0, -6273.933502904595, 18727.677312812488, -31136.27059892066, -5150.132495180666, 22904.30192998671, -45407.68061967858, -4210.554565257378, -16763.294251357824, -0.066, 0.994, 0.098, 192.0, 0.0, 0.0, 0.0, 0.0, 0.0, 0.0, 0.0, 0.0, 0.0, 1.6814209841127353E9, 0.0, 2023-04-13 17:23:04.112
165.0, -6235.555557674833, 18740.730731574386, -31128.469840105754, -5046.152179974578, 22888.901578057, -45382.66901763309, -4201.993847130996, -16773.598405551722, -0.066, 0.994, 0.098, 192.0, 0.0, 0.0, 0.0, 0.0, 0.0, 0.0, 0.0, 0.0, 0.0, 1.6814209841127703E9, 0.0, 2023-04-13 17:23:04.112
166.0, -6221.697476112542, 18750.163167734525, -31154.666084607376, -4973.061975605724, 23071.448275023497, -45397.19765152904, -4232.012239934474, -16809.27178970239, -0.066, 0.994, 0.098, 192.0, 0.0, 0.0, 0.0, 0.0, 0.0, 0.0, 0.0, 0.0, 0.0, 1.681420984112803E9, 0.0, 2023-04-13 17:23:04.112
167.0, -6258.5331509748885, 18740.41780715201, -31159.538764898633, -5050.510770143363, 23100.66200502658, -45412.10626508072, -4237.868396981764, -16799.593484353245, -0.066, 0.994, 0.098, 192.0, 0.0, 0.0, 0.0, 0.0, 0.0, 0.0, 0.0, 0.0, 0.0, 1.6814209841128356E9, 0.0, 2023-04-13 17:23:04.112
168.0, -6281.287226830391, 18731.968847747907, -31134.25894191968, -5138.487236319451, 22940.802328682224, -45401.75740739792, -4212.275649580437, -16759.22623386696, -0.062, 1.0, 0.092, 192.0, 254.0, 16.0, 31.0, 64.0, 2.0, 224.0, 0.0, 0.0, 0.0, 1.6814209841128676E9, 0.0, 2023-04-13 17:23:04.112
169.0, -6239.243595509958, 18745.08932174317, -31109.71672650775, -5063.139505760611, 22865.253432423287, -45369.2579709599, -4190.97443711453, -16752.230137852446, -0.062, 1.0, 0.092, 192.0, 0.0, 0.0, 0.0, 0.0, 0.0, 0.0, 0.0, 0.0, 0.0, 1.681420984112904E9, 0.0, 2023-04-13 17:23:04.112
170.0, -6206.207717205014, 18760.3779149506, -31129.274502906148, -4956.812257386716, 23033.115033282644, -45374.75650009591, -4216.813053704865, -16790.876304015674, -0.062, 1.0, 0.092, 192.0, 0.0, 0.0, 0.0, 0.0, 0.0, 0.0, 0.0, 0.0, 0.0, 1.6814209841129375E9, 0.0, 2023-04-13 17:23:04.112
171.0, -6242.261081011425, 18744.597583365154, -31152.341503184023, -5023.37575237462, 23111.7037667875, -45405.0654655773, -4240.796475505409, -16803.102708232727, -0.062, 1.0, 0.092, 192.0, 0.0, 0.0, 0.0, 0.0, 0.0, 0.0, 0.0, 0.0, 0.0, 1.681420984113022E9, 0.0, 2023-04-13 17:23:04.113
172.0, -6278.873238429218, 18729.264286668815, -31147.31236068158, -5126.372590824675, 22995.720564808915, -45411.860395891716, -4228.257146865982, -16776.571187564277, -0.062, 1.0, 0.092, 192.0, 0.0, 0.0, 0.0, 0.0, 0.0, 0.0, 0.0, 0.0, 0.0, 1.6814209841130548E9, 0.0, 2023-04-13 17:23:04.113
173.0, -6249.391287492667, 18741.356580419135, -31119.864418490462, -5091.883849130136, 22870.170816203456, -45384.859488589704, -4201.725626197533, -16757.438094310535, -0.062, 1.0, 0.092, 192.0, 0.0, 0.0, 0.0, 0.0, 0.0, 0.0, 0.0, 0.0, 0.0, 1.6814209841130867E9, 0.0, 2023-04-13 17:23:04.113
174.0, -6210.298086440335, 18754.588813136677, -31137.723462310252, -4969.1727720705, 23020.240428476387, -45387.3628839687, -4226.558414287379, -16800.28638843136, -0.062, 1.0, 0.092, 192.0, 0.0, 0.0, 0.0, 0.0, 0.0, 0.0, 0.0, 0.0, 0.0, 1.6814209841131191E9, 0.0, 2023-04-13 17:23:04.113
175.0, -6242.082267055782, 18745.58106012119, -31167.07130278007, -5017.206670904955, 23133.004979253412, -45420.33170704028, -4254.922778001163, -16820.939400308063, -0.062, 1.0, 0.092, 192.0, 0.0, 0.0, 0.0, 0.0, 0.0, 0.0, 0.0, 0.0, 0.0, 1.681420984113152E9, 0.0, 2023-04-13 17:23:04.113
176.0, -6272.793563937374, 18736.349789661144, -31151.425081661357, -5116.58252675325, 23018.966379042435, -45422.14219834116, -4236.571995803356, -16787.545894091832, -0.062, 1.0, 0.092, 192.0, 0.0, 0.0, 0.0, 0.0, 0.0, 0.0, 0.0, 0.0, 0.0, 1.6814209841131995E9, 0.0, 2023-04-13 17:23:04.113
177.0, -6257.169694563115, 18737.33326641718, -31123.77597377014, -5115.1073116192, 22870.930775514935, -45396.549450939834, -4208.006466389474, -16762.914271702084, -0.062, 1.0, 0.092, 192.0, 0.0, 0.0, 0.0, 0.0, 0.0, 0.0, 0.0, 0.0, 0.0, 1.6814209841132317E9, 0.0, 2023-04-13 17:23:04.113
178.0, -6214.030827764372, 18747.972696777906, -31133.96836924176, -4981.443879776464, 22995.675861320004, -45387.72051187998, -4223.116245641261, -16799.437022142058, -0.058, 1.004, 0.088, 192.0, 254.0, 48.0, 31.0, 96.0, 2.0, 192.0, 0.0, 0.0, 0.0, 1.6814209841132655E9, 0.0, 2023-04-13 17:23:04.113
179.0, -6235.264984996914, 18740.596621107652, -31160.231668976747, -5004.153252143055, 23139.19641246753, -45416.8671866497, -4250.720650043565, -16820.6711793746, -0.058, 1.004, 0.088, 192.0, 0.0, 0.0, 0.0, 0.0, 0.0, 0.0, 0.0, 0.0, 0.0, 1.6814209841133003E9, 0.0, 2023-04-13 17:23:04.113
180.0, -6271.497162758967, 18728.057292468227, -31154.464918907277, -5101.696264946016, 23056.249088793887, -45423.63976521966, -4239.07539118235, -16794.452583128525, -0.058, 1.004, 0.088, 192.0, 0.0, 0.0, 0.0, 0.0, 0.0, 0.0, 0.0, 0.0, 0.0, 1.6814209841133327E9, 0.0, 2023-04-13 17:23:04.113
181.0, -6264.434011511089, 18731.030074480783, -31126.83816276052, -5128.20543387001, 22894.377755448553, -45399.58928818575, -4209.436978034613, -16762.93662344654, -0.058, 1.004, 0.088, 192.0, 0.0, 0.0, 0.0, 0.0, 0.0, 0.0, 0.0, 0.0, 0.0, 1.681420984113365E9, 0.0, 2023-04-13 17:23:04.113
182.0, -6212.8685370526955, 18749.80553982324, -31127.665177305364, -4994.117318882623, 22963.466997559906, -45384.6136194007, -4216.678943238133, -16791.256283671413, -0.058, 1.004, 0.088, 192.0, 0.0, 0.0, 0.0, 0.0, 0.0, 0.0, 0.0, 0.0, 0.0, 1.6814209841133976E9, 0.0, 2023-04-13 17:23:04.113
183.0, -6215.282525453869, 18749.514967145322, -31157.01301777518, -4982.583818743685, 23124.131336704653, -45410.98867785796, -4249.8712837542635, -16822.012284041917, -0.058, 1.004, 0.088, 192.0, 0.0, 0.0, 0.0, 0.0, 0.0, 0.0, 0.0, 0.0, 0.0, 1.6814209841134295E9, 0.0, 2023-04-13 17:23:04.113
184.0, -6261.0588980983375, 18731.3206471587, -31161.840994577527, -5083.2113722814765, 23090.80488572179, -45426.23256757648, -4250.251263410004, -16806.41076641211, -0.058, 1.004, 0.088, 192.0, 0.0, 0.0, 0.0, 0.0, 0.0, 0.0, 0.0, 0.0, 0.0, 1.6814209841134615E9, 0.0, 2023-04-13 17:23:04.113
185.0, -6275.632235483198, 18727.207926178926, -31134.3483488975, -5140.990631698445, 22917.66827317098, -45408.03824758986, -4216.522481026946, -16767.138751404138, -0.058, 1.004, 0.088, 192.0, 0.0, 0.0, 0.0, 0.0, 0.0, 0.0, 0.0, 0.0, 0.0, 1.6814209841134937E9, 0.0, 2023-04-13 17:23:04.113
186.0, -6226.972487803994, 18740.395455407557, -31126.324072638046, -5016.670229038028, 22936.0637588577, -45384.30069497832, -4211.001600146485, -16782.85202775622, -0.058, 1.004, 0.088, 192.0, 0.0, 0.0, 0.0, 0.0, 0.0, 0.0, 0.0, 0.0, 0.0, 1.6814209841135604E9, 0.0, 2023-04-13 17:23:04.113
187.0, -6225.8996040701395, 18740.820138552208, -31161.796291088616, -4975.811240173726, 23120.309188402796, -45410.20636680203, -4248.84310350932, -16823.84512708725, -0.058, 1.004, 0.088, 192.0, 0.0, 0.0, 0.0, 0.0, 0.0, 0.0, 0.0, 0.0, 0.0, 1.6814209841135929E9, 0.0, 2023-04-13 17:23:04.113
188.0, -6270.044299369371, 18726.693836056453, -31171.720465626775, -5068.235703496422, 23115.324749389263, -45427.93130015508, -4254.922778001163, -16814.099766504736, -0.05, 1.014, 0.08600000000000001, 192.0, 254.0, 112.0, 31.0, 176.0, 2.0, 176.0, 0.0, 0.0, 0.0, 1.6814209841136248E9, 0.0, 2023-04-13 17:23:04.113
189.0, -6284.729395476508, 18721.53058308728, -31146.530049625642, -5140.811817742803, 22941.562287993704, -45412.93327962557, -4226.759579987476, -16774.447771841023, -0.05, 1.014, 0.08600000000000001, 192.0, 0.0, 0.0, 0.0, 0.0, 0.0, 0.0, 0.0, 0.0, 0.0, 1.6814209841136591E9, 0.0, 2023-04-13 17:23:04.113
190.0, -6233.052162295838, 18743.85997579813, -31124.670043548354, -5038.194958948488, 22894.91419731548, -45382.08787227725, -4208.677018723133, -16774.894806730128, -0.05, 1.014, 0.08600000000000001, 192.0, 0.0, 0.0, 0.0, 0.0, 0.0, 0.0, 0.0, 0.0, 0.0, 1.6814209841136913E9, 0.0, 2023-04-13 17:23:04.113
191.0, -6219.886984811662, 18746.922164788506, -31156.856555563994, -4966.311748780221, 23075.113961114166, -45403.23262253197, -4244.640975551722, -16821.364083452714, -0.05, 1.014, 0.08600000000000001, 192.0, 0.0, 0.0, 0.0, 0.0, 0.0, 0.0, 0.0, 0.0, 0.0, 1.6814209841137245E9, 0.0, 2023-04-13 17:23:04.113
192.0, -6259.158999819637, 18731.052426225237, -31173.061570294092, -5048.901444542581, 23116.330577889752, -45427.439561777064, -4259.326071658858, -16820.917048563606, -0.05, 1.014, 0.08600000000000001, 192.0, 0.0, 0.0, 0.0, 0.0, 0.0, 0.0, 0.0, 0.0, 0.0, 1.6814209841137679E9, 0.0, 2023-04-13 17:23:04.113
193.0, -6283.343587320279, 18723.497536599345, -31153.16851772887, -5137.548463052329, 22968.473788317897, -45418.7223814395, -4237.019030692462, -16783.83550451225, -0.05, 1.014, 0.08600000000000001, 192.0, 0.0, 0.0, 0.0, 0.0, 0.0, 0.0, 0.0, 0.0, 0.0, 1.6814209841138E9, 0.0, 2023-04-13 17:23:04.113
194.0, -6241.925804844595, 18741.110711230125, -31126.79345927161, -5064.257092983376, 22888.812171079182, -45383.71954962249, -4212.655629236177, -16772.27965262886, -0.05, 1.014, 0.08600000000000001, 192.0, 0.0, 0.0, 0.0, 0.0, 0.0, 0.0, 0.0, 0.0, 0.0, 1.6814209841138337E9, 0.0, 2023-04-13 17:23:04.113
195.0, -6217.8529760662295, 18748.28562120028, -31149.122851982458, -4956.186408541967, 23055.287963782306, -45388.90515433611, -4239.500074327001, -16813.697435104543, -0.05, 1.014, 0.08600000000000001, 192.0, 0.0, 0.0, 0.0, 0.0, 0.0, 0.0, 0.0, 0.0, 0.0, 1.6814209841138656E9, 0.0, 2023-04-13 17:23:04.113
196.0, -6255.113334073226, 18732.549993103745, -31170.088788281537, -5025.879147753614, 23128.221705939974, -45417.0683523498, -4257.828504780353, -16821.699359619543, -0.05, 1.014, 0.08600000000000001, 192.0, 0.0, 0.0, 0.0, 0.0, 0.0, 0.0, 0.0, 0.0, 0.0, 1.6814209841138983E9, 0.0, 2023-04-13 17:23:04.113
197.0, -6284.14825012067, 18719.89890574204, -31154.06258750708, -5123.668029745582, 22998.000442743356, -45413.87205289269, -4234.515635313468, -16787.255321413915, -0.05, 1.014, 0.08600000000000001, 192.0, 0.0, 0.0, 0.0, 0.0, 0.0, 0.0, 0.0, 0.0, 0.0, 1.6814209841139274E9, 0.0, 2023-04-13 17:23:04.113
198.0, -6257.8849503856845, 18728.012588979316, -31127.486363349723, -5089.335750262231, 22875.57993836164, -45385.440633945545, -4207.984114645018, -16769.150408405116, -0.054, 1.016, 0.088, 192.0, 254.0, 80.0, 31.0, 192.0, 2.0, 192.0, 0.0, 0.0, 0.0, 1.6814209841139717E9, 0.0, 2023-04-13 17:23:04.113
199.0, -6219.372894689191, 18739.99312400736, -31145.323055425055, -4961.282606277777, 23037.60773391816, -45386.84879384623, -4229.97823118904, -16811.484612403467, -0.054, 1.016, 0.088, 192.0, 0.0, 0.0, 0.0, 0.0, 0.0, 0.0, 0.0, 0.0, 0.0, 1.6814209841140034E9, 0.0, 2023-04-13 17:23:04.114
200.0, -6251.559406704832, 18723.922219743996, -31173.352142972013, -5008.84711847867, 23157.10015977623, -45423.23743381947, -4260.108382714794, -16829.65658064563, -0.054, 1.016, 0.088, 192.0, 0.0, 0.0, 0.0, 0.0, 0.0, 0.0, 0.0, 0.0, 0.0, 1.681420984114038E9, 0.0, 2023-04-13 17:23:04.114
201.0, -6283.500049531466, 18718.08841444116, -31156.767148586176, -5106.68070395955, 23047.531908456316, -45424.24326231996, -4241.109399927784, -16792.79855403883, -0.054, 1.016, 0.088, 192.0, 0.0, 0.0, 0.0, 0.0, 0.0, 0.0, 0.0, 0.0, 0.0, 1.681420984114106E9, 0.0, 2023-04-13 17:23:04.114
202.0, -6265.328081289302, 18727.83377502367, -31125.273540648646, -5103.015017868879, 22889.706240857395, -45394.82836661677, -4207.917059411652, -16763.003678679906, -0.054, 1.016, 0.088, 192.0, 0.0, 0.0, 0.0, 0.0, 0.0, 0.0, 0.0, 0.0, 0.0, 1.6814209841141343E9, 0.0, 2023-04-13 17:23:04.114
203.0, -6219.775226089386, 18741.691856585963, -31133.4989826082, -4963.964815612414, 23010.070384749222, -45386.64762814613, -4223.362114830269, -16798.587655852756, -0.054, 1.016, 0.088, 192.0, 0.0, 0.0, 0.0, 0.0, 0.0, 0.0, 0.0, 0.0, 0.0, 1.6814209841141627E9, 0.0, 2023-04-13 17:23:04.114
204.0, -6237.969546076006, 18738.450853639944, -31156.521279397166, -4977.398214030053, 23141.923325291078, -45412.84387264775, -4251.190036677127, -16818.12308050669, -0.054, 1.016, 0.088, 192.0, 0.0, 0.0, 0.0, 0.0, 0.0, 0.0, 0.0, 0.0, 0.0, 1.68142098411419E9, 0.0, 2023-04-13 17:23:04.114
205.0, -6273.061784870838, 18725.55389708923, -31147.714692081776, -5076.125869289144, 23062.37346677464, -45417.716552939004, -4241.623490050255, -16791.166876693595, -0.054, 1.016, 0.088, 192.0, 0.0, 0.0, 0.0, 0.0, 0.0, 0.0, 0.0, 0.0, 0.0, 1.6814209841142187E9, 0.0, 2023-04-13 17:23:04.114
206.0, -6267.9208836461175, 18728.169051190504, -31113.91885446535, -5103.842032413725, 22894.154238004, -45392.302619493326, -4211.73920771351, -16757.79572222182, -0.054, 1.016, 0.088, 192.0, 0.0, 0.0, 0.0, 0.0, 0.0, 0.0, 0.0, 0.0, 0.0, 1.681420984114254E9, 0.0, 2023-04-13 17:23:04.114
207.0, -6221.317496456802, 18741.781263563786, -31111.706031764275, -4964.881237135081, 22967.087980161665, -45376.32112220778, -4218.087103138817, -16785.17660917957, -0.054, 1.016, 0.088, 192.0, 0.0, 0.0, 0.0, 0.0, 0.0, 0.0, 0.0, 0.0, 0.0, 1.681420984114288E9, 0.0, 2023-04-13 17:23:04.114
208.0, -6234.505025685433, 18735.45571988293, -31140.517430367167, -4952.096039306645, 23131.350950163716, -45407.81473014531, -4251.190036677127, -16819.084205518273, -0.058, 1.002, 0.094, 192.0, 254.0, 48.0, 31.0, 80.0, 2.0, 240.0, 0.0, 0.0, 0.0, 1.681420984114326E9, 0.0, 2023-04-13 17:23:04.114
209.0, -6273.061784870838, 18724.056330210726, -31137.63405533243, -5051.8071713217705, 23089.1508566321, -45424.48913150896, -4249.513655842979, -16802.49921113243, -0.058, 1.002, 0.094, 192.0, 0.0, 0.0, 0.0, 0.0, 0.0, 0.0, 0.0, 0.0, 0.0, 1.6814209841143675E9, 0.0, 2023-04-13 17:23:04.114
210.0, -6280.124936118715, 18725.263324411313, -31110.990775941704, -5114.39205579663, 22914.181401035956, -45411.167491813605, -4223.518577041456, -16767.250510126414, -0.058, 1.002, 0.094, 192.0, 0.0, 0.0, 0.0, 0.0, 0.0, 0.0, 0.0, 0.0, 0.0, 1.6814209841144059E9, 0.0, 2023-04-13 17:23:04.114
211.0, -6229.922918072095, 18739.411978651522, -31100.351345580977, -4995.6372375055835, 22919.67993017196, -45388.435767702555, -4216.343667071303, -16778.493437587433, -0.058, 1.002, 0.094, 192.0, 0.0, 0.0, 0.0, 0.0, 0.0, 0.0, 0.0, 0.0, 0.0, 1.6814209841144416E9, 0.0, 2023-04-13 17:23:04.114
212.0, -6225.6090313922205, 18742.004781008338, -31133.230761674735, -4951.69370790645, 23090.067278154766, -45412.30743078082, -4250.430077365646, -16813.742138593454, -0.058, 1.002, 0.094, 192.0, 0.0, 0.0, 0.0, 0.0, 0.0, 0.0, 0.0, 0.0, 0.0, 1.6814209841144688E9, 0.0, 2023-04-13 17:23:04.114
213.0, -6269.95489239155, 18725.352731389135, -31143.64667459091, -5041.503017127874, 23087.407420564585, -45431.641689734664, -4255.7944960349205, -16803.393280910645, -0.058, 1.002, 0.094, 192.0, 0.0, 0.0, 0.0, 0.0, 0.0, 0.0, 0.0, 0.0, 0.0, 1.6814209841144989E9, 0.0, 2023-04-13 17:23:04.114
214.0, -6290.987883923994, 18717.641379552053, -31119.752659768186, -5119.600012254717, 22931.213430310898, -45418.54356748385, -4228.055981165884, -16766.065867670284, -0.058, 1.002, 0.094, 192.0, 0.0, 0.0, 0.0, 0.0, 0.0, 0.0, 0.0, 0.0, 0.0, 1.6814209841145391E9, 0.0, 2023-04-13 17:23:04.114
215.0, -6231.8228163507965, 18742.13889147507, -31089.309583820057, -5015.485586581896, 22869.43320863643, -45378.95862805351, -4202.664399464655, -16758.533329788843, -0.058, 1.002, 0.094, 192.0, 0.0, 0.0, 0.0, 0.0, 0.0, 0.0, 0.0, 0.0, 0.0, 1.6814209841145737E9, 0.0, 2023-04-13 17:23:04.114
216.0, -6213.18146147507, 18745.648115354554, -31116.91398822236, -4935.846321087637, 23049.208289290465, -45394.806014872316, -4235.40970509168, -16802.007472754416, -0.058, 1.002, 0.094, 192.0, 0.0, 0.0, 0.0, 0.0, 0.0, 0.0, 0.0, 0.0, 0.0, 1.68142098411461E9, 0.0, 2023-04-13 17:23:04.114
217.0, -6257.862598641229, 18725.397434878047, -31135.68945356482, -5025.253298908866, 23100.103211415197, -45426.3219745543, -4253.760487289487, -16804.33205417777, -0.058, 1.002, 0.094, 192.0, 0.0, 0.0, 0.0, 0.0, 0.0, 0.0, 0.0, 0.0, 0.0, 1.6814209841146924E9, 0.0, 2023-04-13 17:23:04.114
218.0, -6289.020930411927, 18713.863934739107, -31120.62437780194, -5124.405637312608, 22949.899488675535, -45424.37737278669, -4232.9063097126855, -16770.26799562788, -0.062, 0.992, 0.1, 192.0, 254.0, 16.0, 31.0, 0.0, 3.0, 32.0, 0.0, 0.0, 0.0, 1.681420984114755E9, 0.0, 2023-04-13 17:23:04.114
219.0, -6251.849979382751, 18724.033978466272, -31099.837255458508, -5060.300834214787, 22867.220385935354, -45396.88472710666, -4211.113358868761, -16763.22719612446, -0.062, 0.992, 0.1, 192.0, 0.0, 0.0, 0.0, 0.0, 0.0, 0.0, 0.0, 0.0, 0.0, 1.6814209841147904E9, 0.0, 2023-04-13 17:23:04.114
220.0, -6222.680952868575, 18733.60052509314, -31124.044194703605, -4954.085344563168, 23035.305504239263, -45407.390047000656, -4239.276556882448, -16807.4165949126, -0.062, 0.992, 0.1, 192.0, 0.0, 0.0, 0.0, 0.0, 0.0, 0.0, 0.0, 0.0, 0.0, 1.6814209841148243E9, 0.0, 2023-04-13 17:23:04.114
221.0, -6258.0637643413265, 18720.681216797973, -31148.92168628236, -5020.492377339885, 23117.269351156876, -45440.40357356115, -4261.98592924904, -16818.81598458481, -0.062, 0.992, 0.1, 192.0, 0.0, 0.0, 0.0, 0.0, 0.0, 0.0, 0.0, 0.0, 0.0, 1.6814209841148553E9, 0.0, 2023-04-13 17:23:04.114
222.0, -6286.316369332835, 18711.18172540447, -31132.649616318897, -5117.878927931658, 22979.627308801093, -45439.44244854957, -4238.829521993342, -16782.38264112266, -0.062, 0.992, 0.1, 192.0, 0.0, 0.0, 0.0, 0.0, 0.0, 0.0, 0.0, 0.0, 0.0, 1.6814209841148865E9, 0.0, 2023-04-13 17:23:04.114
223.0, -6255.560368962332, 18723.832812766173, -31101.31247059256, -5079.836258868726, 22846.835594992113, -45403.07616032078, -4207.045341377895, -16757.92983268855, -0.062, 0.992, 0.1, 192.0, 0.0, 0.0, 0.0, 0.0, 0.0, 0.0, 0.0, 0.0, 0.0, 1.6814209841149225E9, 0.0, 2023-04-13 17:23:04.114
224.0, -6216.221298720992, 18736.618010594608, -31120.736136524218, -4948.162132282511, 22995.117067708623, -45401.33272425327, -4232.056943423384, -16801.068699487292, -0.062, 0.992, 0.1, 192.0, 0.0, 0.0, 0.0, 0.0, 0.0, 0.0, 0.0, 0.0, 0.0, 1.6814209841149547E9, 0.0, 2023-04-13 17:23:04.114
225.0, -6247.334927002779, 18723.36342613261, -31151.31332293908, -4993.245600848866, 23114.453031355504, -45434.860340936226, -4261.98592924904, -16821.56524915281, -0.062, 0.992, 0.1, 192.0, 0.0, 0.0, 0.0, 0.0, 0.0, 0.0, 0.0, 0.0, 0.0, 1.6814209841149898E9, 0.0, 2023-04-13 17:23:04.114
226.0, -6277.57683725081, 18715.629722551075, -31140.852706533995, -5095.661293943083, 23001.263797433832, -45439.554207271845, -4249.804228520898, -16792.396222638636, -0.062, 0.992, 0.1, 192.0, 0.0, 0.0, 0.0, 0.0, 0.0, 0.0, 0.0, 0.0, 0.0, 1.6814209841150267E9, 0.0, 2023-04-13 17:23:04.115
227.0, -6259.293110286369, 18725.97858023388, -31110.074354419037, -5096.935343377036, 22850.70244678288, -45414.07321859279, -4219.763483972965, -16767.026992681862, -0.062, 0.992, 0.1, 192.0, 0.0, 0.0, 0.0, 0.0, 0.0, 0.0, 0.0, 0.0, 0.0, 1.6814209841150646E9, 0.0, 2023-04-13 17:23:04.115
228.0, -6212.309743441313, 18744.597583365154, -31109.694374763298, -4959.047431832246, 22960.002477169335, -45399.94691609704, -4225.485530553524, -16793.46910637249, -0.064, 0.988, 0.10200000000000001, 192.0, 254.0, 0.0, 30.0, 224.0, 3.0, 48.0, 0.0, 0.0, 0.0, 1.6814209841151028E9, 0.0, 2023-04-13 17:23:04.115
229.0, -6230.526415172389, 18732.125309959094, -31140.204505944792, -4977.800545430248, 23105.042946939822, -45432.08872462377, -4259.035498980939, -16822.124042764193, -0.064, 0.988, 0.10200000000000001, 192.0, 0.0, 0.0, 0.0, 0.0, 0.0, 0.0, 0.0, 0.0, 0.0, 1.6814209841151412E9, 0.0, 2023-04-13 17:23:04.115
230.0, -6272.547694748366, 18708.231295136367, -31138.706939066287, -5084.775994393349, 23048.291867767795, -45444.20337011854, -4253.358155889292, -16802.722728576988, -0.064, 0.988, 0.10200000000000001, 192.0, 0.0, 0.0, 0.0, 0.0, 0.0, 0.0, 0.0, 0.0, 0.0, 1.681420984115178E9, 0.0, 2023-04-13 17:23:04.115
231.0, -6270.200761580559, 18708.410109092012, -31106.96746193975, -5122.34927682272, 22881.81607506467, -45423.75152394194, -4221.842196207309, -16767.965765948986, -0.064, 0.988, 0.10200000000000001, 192.0, 0.0, 0.0, 0.0, 0.0, 0.0, 0.0, 0.0, 0.0, 0.0, 1.6814209841152112E9, 0.0, 2023-04-13 17:23:04.115
232.0, -6224.446740680545, 18725.03980696676, -31105.648709016885, -4987.411795546031, 22941.696398460437, -45407.21123304501, -4223.876204952741, -16791.65861507161, -0.064, 0.988, 0.10200000000000001, 192.0, 0.0, 0.0, 0.0, 0.0, 0.0, 0.0, 0.0, 0.0, 0.0, 1.681420984115286E9, 0.0, 2023-04-13 17:23:04.115
233.0, -6238.729505387486, 18723.452833110434, -31139.869229777963, -4973.777231428294, 23098.98562419243, -45434.74858221395, -4254.945129745618, -16820.98410379697, -0.064, 0.988, 0.10200000000000001, 192.0, 0.0, 0.0, 0.0, 0.0, 0.0, 0.0, 0.0, 0.0, 0.0, 1.6814209841153255E9, 0.0, 2023-04-13 17:23:04.115
234.0, -6280.236694840992, 18707.583094547164, -31143.333750168535, -5068.392165707608, 23061.479396996427, -45447.310262597835, -4249.536007587434, -16798.386490152658, -0.064, 0.988, 0.10200000000000001, 192.0, 0.0, 0.0, 0.0, 0.0, 0.0, 0.0, 0.0, 0.0, 0.0, 1.6814209841153543E9, 0.0, 2023-04-13 17:23:04.115
235.0, -6284.684691987597, 18705.929065457472, -31113.672985276342, -5123.198643112021, 22880.229101208344, -45424.153855342134, -4214.30965832587, -16754.577071020256, -0.064, 0.988, 0.10200000000000001, 192.0, 0.0, 0.0, 0.0, 0.0, 0.0, 0.0, 0.0, 0.0, 0.0, 1.6814209841153948E9, 0.0, 2023-04-13 17:23:04.115
236.0, -6233.923880329595, 18725.24097266686, -31100.2395868587, -4998.386502073587, 22883.0007175208, -45394.35897998321, -4205.793643688398, -16764.300079858313, -0.064, 0.988, 0.10200000000000001, 192.0, 0.0, 0.0, 0.0, 0.0, 0.0, 0.0, 0.0, 0.0, 0.0, 1.6814209841154327E9, 0.0, 2023-04-13 17:23:04.115
237.0, -6228.313592471313, 18729.867783769107, -31128.425136616843, -4948.050373560235, 23062.28405979682, -45416.196634316046, -4240.528254571946, -16802.94624602154, -0.064, 0.988, 0.10200000000000001, 192.0, 0.0, 0.0, 0.0, 0.0, 0.0, 0.0, 0.0, 0.0, 0.0, 1.6814209841154933E9, 0.0, 2023-04-13 17:23:04.115
238.0, -6267.026813867905, 18715.964998717904, -31138.662235577376, -5040.586595605207, 23074.823388436245, -45441.34234682826, -4251.949995988607, -16800.50990587591, -0.068, 0.996, 0.094, 192.0, 253.0, 224.0, 31.0, 32.0, 2.0, 240.0, 0.0, 0.0, 0.0, 1.6814209841155317E9, 0.0, 2023-04-13 17:23:04.115
239.0, -6278.873238429218, 18711.338187615656, -31112.86832247595, -5123.82449195677, 22911.633302168048, -45433.742753713464, -4229.374734088747, -16765.596481036722, -0.068, 0.996, 0.094, 192.0, 0.0, 0.0, 0.0, 0.0, 0.0, 0.0, 0.0, 0.0, 0.0, 1.6814209841155725E9, 0.0, 2023-04-13 17:23:04.115
240.0, -6233.789769862863, 18725.196269177948, -31093.779932711117, -5027.779046032316, 22881.011412264277, -45404.55137545483, -4214.041437392407, -16770.312699116792, -0.068, 0.996, 0.094, 192.0, 0.0, 0.0, 0.0, 0.0, 0.0, 0.0, 0.0, 0.0, 0.0, 1.6814209841156113E9, 0.0, 2023-04-13 17:23:04.115
241.0, -6215.349580687235, 18731.052426225237, -31117.4951335782, -4946.664565404006, 23054.37154225964, -45422.38806753017, -4246.473818597057, -16813.071586259794, -0.068, 0.996, 0.094, 192.0, 0.0, 0.0, 0.0, 0.0, 0.0, 0.0, 0.0, 0.0, 0.0, 1.681420984591726E9, 0.0, 2023-04-13 17:23:04.591
242.0, -6250.754743904441, 18717.17199291849, -31129.83329651753, -5026.214423920444, 23088.18973162052, -45448.65136726515, -4259.773106547965, -16811.75283333693, -0.068, 0.996, 0.094, 192.0, 0.0, 0.0, 0.0, 0.0, 0.0, 0.0, 0.0, 0.0, 0.0, 1.6814209845919707E9, 0.0, 2023-04-13 17:23:04.591
243.0, -6274.626406982709, 18712.634588794066, -31106.81099972856, -5117.186023853544, 22932.219258811387, -45439.889483438674, -4230.917004456163, -16771.340879361735, -0.068, 0.996, 0.094, 192.0, 0.0, 0.0, 0.0, 0.0, 0.0, 0.0, 0.0, 0.0, 0.0, 1.6814209845920255E9, 0.0, 2023-04-13 17:23:04.592
244.0, -6241.18819727757, 18730.33717040267, -31081.35236279397, -5051.606005621673, 22838.163118143453, -45404.77489289938, -4202.552640742379, -16757.639260010634, -0.068, 0.996, 0.094, 192.0, 0.0, 0.0, 0.0, 0.0, 0.0, 0.0, 0.0, 0.0, 0.0, 1.681420984592062E9, 0.0, 2023-04-13 17:23:04.592
245.0, -6216.288353954358, 18738.42850189549, -31106.945110195295, -4945.301108992232, 23004.41539340203, -45411.97215461399, -4231.609908534278, -16798.297083174835, -0.068, 0.996, 0.094, 192.0, 0.0, 0.0, 0.0, 0.0, 0.0, 0.0, 0.0, 0.0, 0.0, 1.681420984592098E9, 0.0, 2023-04-13 17:23:04.592
246.0, -6253.906339872639, 18723.13990868806, -31131.77789828514, -5010.858775479648, 23091.497789799905, -45444.00220441845, -4256.152123946205, -16807.506001890422, -0.068, 0.996, 0.094, 192.0, 0.0, 0.0, 0.0, 0.0, 0.0, 0.0, 0.0, 0.0, 0.0, 1.6814209845921335E9, 0.0, 2023-04-13 17:23:04.592
247.0, -6290.272628101424, 18709.460641081412, -31122.479572591732, -5110.927535406057, 22983.762381525325, -45446.84087596427, -4241.3552691167915, -16779.611024810198, -0.068, 0.996, 0.094, 192.0, 0.0, 0.0, 0.0, 0.0, 0.0, 0.0, 0.0, 0.0, 0.0, 1.6814209845921695E9, 0.0, 2023-04-13 17:23:04.592
248.0, -6261.5282847318995, 18721.575286576186, -31092.39412455489, -5083.189020537022, 22854.122263684545, -45415.99546861595, -4209.861661179264, -16755.89582394312, -0.07, 1.004, 0.096, 192.0, 253.0, 208.0, 31.0, 96.0, 3.0, 0.0, 0.0, 0.0, 0.0, 1.681420984592346E9, 0.0, 2023-04-13 17:23:04.592
249.0, -6220.177557489581, 18736.685065827976, -31106.96746193975, -4952.498370706841, 22989.305614150242, -45410.63104994668, -4233.576862046345, -16793.491458116943, -0.07, 1.004, 0.096, 192.0, 0.0, 0.0, 0.0, 0.0, 0.0, 0.0, 0.0, 0.0, 0.0, 1.681420984592384E9, 0.0, 2023-04-13 17:23:04.592
250.0, -6249.19012179257, 18725.84446976715, -31139.35513965549, -4998.900592196059, 23105.489981828927, -45443.733983484984, -4266.724499073565, -16812.333978692768, -0.07, 1.004, 0.096, 192.0, 0.0, 0.0, 0.0, 0.0, 0.0, 0.0, 0.0, 0.0, 0.0, 1.681420984592424E9, 0.0, 2023-04-13 17:23:04.592
251.0, -6284.19295360958, 18714.4674318394, -31134.21423843077, -5103.551459735806, 23003.320157923717, -45450.1265823992, -4254.967481490074, -16780.482742843957, -0.07, 1.004, 0.096, 192.0, 0.0, 0.0, 0.0, 0.0, 0.0, 0.0, 0.0, 0.0, 0.0, 1.68142098459246E9, 0.0, 2023-04-13 17:23:04.592
252.0, -6275.09579361627, 18716.769661518298, -31112.756563753675, -5113.945020907524, 22848.62373454854, -45426.36667804321, -4229.039457921917, -16751.827806452253, -0.07, 1.004, 0.096, 192.0, 0.0, 0.0, 0.0, 0.0, 0.0, 0.0, 0.0, 0.0, 0.0, 1.681420984592494E9, 0.0, 2023-04-13 17:23:04.592
253.0, -6228.604165149232, 18733.108786715125, -31122.770145269653, -4977.8452489191595, 22952.82756719918, -45416.04017210486, -4241.93641447263, -16786.07067895778, -0.07, 1.004, 0.096, 192.0, 0.0, 0.0, 0.0, 0.0, 0.0, 0.0, 0.0, 0.0, 0.0, 1.6814209845925295E9, 0.0, 2023-04-13 17:23:04.592
254.0, -6243.110447300726, 18733.265248926313, -31150.866288049972, -4994.564353771729, 23087.85445545369, -45445.85739920824, -4270.747813075521, -16810.836411814264, -0.07, 1.004, 0.096, 192.0, 0.0, 0.0, 0.0, 0.0, 0.0, 0.0, 0.0, 0.0, 0.0, 1.681420984592564E9, 0.0, 2023-04-13 17:23:04.592
255.0, -6274.961683149539, 18722.670522054497, -31141.724424567754, -5091.995607852413, 23009.93627428249, -45453.166419645124, -4256.308586157392, -16786.115382446693, -0.07, 1.004, 0.096, 192.0, 0.0, 0.0, 0.0, 0.0, 0.0, 0.0, 0.0, 0.0, 0.0, 1.681420984592599E9, 0.0, 2023-04-13 17:23:04.592
0.0, -6275.743994205474, 18717.12728942958, -31113.672985276342, -5128.384247825653, 22849.115472926555, -45435.93322467008, -4229.710010255577, -16759.8073792228, -0.07, 1.004, 0.096, 192.0, 0.0, 0.0, 0.0, 0.0, 0.0, 0.0, 0.0, 0.0, 0.0, 1.68142098459264E9, 0.0, 2023-04-13 17:23:04.592
1.0, -6221.205737734525, 18737.601487350643, -31102.96649968225, -4994.787871216282, 22907.05119455471, -45415.481378493474, -4230.022934677951, -16781.667385300087, -0.07, 1.004, 0.096, 192.0, 0.0, 0.0, 0.0, 0.0, 0.0, 0.0, 0.0, 0.0, 0.0, 1.6814209845926733E9, 0.0, 2023-04-13 17:23:04.592
2.0, -6224.08911276926, 18738.249687939846, -31129.341558139513, -4973.598417472651, 23061.9934871189, -45438.213102604524, -4261.851818782308, -16816.04436827235, -0.07200000000000001, 1.002, 0.096, 192.0, 253.0, 192.0, 31.0, 80.0, 3.0, 0.0, 0.0, 0.0, 0.0, 1.6814209845927043E9, 0.0, 2023-04-13 17:23:04.592
3.0, -6266.62448246771, 18719.384815619567, -31135.935322753827, -5071.253188997887, 23045.31908575524, -45457.18973364708, -4266.4786298845565, -16806.589580367756, -0.07200000000000001, 1.002, 0.096, 192.0, 0.0, 0.0, 0.0, 0.0, 0.0, 0.0, 0.0, 0.0, 0.0, 1.681420984592744E9, 0.0, 2023-04-13 17:23:04.592
4.0, -6274.67111047162, 18718.334283630167, -31109.53791255211, -5137.012021185401, 22872.405990648986, -45442.57169277331, -4238.047210937406, -16770.26799562788, -0.07200000000000001, 1.002, 0.096, 192.0, 0.0, 0.0, 0.0, 0.0, 0.0, 0.0, 0.0, 0.0, 0.0, 1.6814209845927773E9, 0.0, 2023-04-13 17:23:04.592
5.0, -6225.676086625587, 18733.399359393046, -31102.49711304869, -5022.6381448075945, 22877.748057573805, -45419.057657606325, -4236.415533592169, -16787.724708047477, -0.07200000000000001, 1.002, 0.096, 192.0, 0.0, 0.0, 0.0, 0.0, 0.0, 0.0, 0.0, 0.0, 0.0, 1.6814209845928075E9, 0.0, 2023-04-13 17:23:04.592
6.0, -6219.238784222458, 18739.3225716737, -31134.929494253338, -4969.329234281688, 23050.8399666357, -45438.213102604524, -4273.2288567100595, -16824.96271431002, -0.07200000000000001, 1.002, 0.096, 192.0, 0.0, 0.0, 0.0, 0.0, 0.0, 0.0, 0.0, 0.0, 0.0, 1.6814209845928366E9, 0.0, 2023-04-13 17:23:04.592
7.0, -6258.466095741523, 18727.923182001494, -31144.965427513773, -5056.47868591293, 23052.493995725396, -45453.63580627868, -4277.922723045674, -16811.395205425644, -0.07200000000000001, 1.002, 0.096, 192.0, 0.0, 0.0, 0.0, 0.0, 0.0, 0.0, 0.0, 0.0, 0.0, 1.681420984592988E9, 0.0, 2023-04-13 17:23:04.592
8.0, -6276.86158142824, 18721.642341809555, -31124.73709878172, -5133.815721728292, 22884.788857077227, -45443.13048638469, -4250.385373876736, -16773.151370662614, -0.07200000000000001, 1.002, 0.096, 192.0, 0.0, 0.0, 0.0, 0.0, 0.0, 0.0, 0.0, 0.0, 0.0, 1.681420984593021E9, 0.0, 2023-04-13 17:23:04.593
9.0, -6233.320383229302, 18738.74142631786, -31105.045211916593, -5038.463179881952, 22844.175737401933, -45412.642706947656, -4232.548681801401, -16771.162065406093, -0.07200000000000001, 1.002, 0.096, 192.0, 0.0, 0.0, 0.0, 0.0, 0.0, 0.0, 0.0, 0.0, 0.0, 1.6814209845930529E9, 0.0, 2023-04-13 17:23:04.593
10.0, -6224.200871491536, 18740.440158896465, -31139.01986348866, -4955.113524808112, 23035.28315249481, -45429.74179145596, -4267.909141529696, -16818.637170629165, -0.07200000000000001, 1.002, 0.096, 192.0, 0.0, 0.0, 0.0, 0.0, 0.0, 0.0, 0.0, 0.0, 0.0, 1.6814209845930855E9, 0.0, 2023-04-13 17:23:04.593
11.0, -6269.552560991355, 18723.251667410335, -31156.40952067489, -5040.072505482734, 23079.763123960867, -45459.15668715915, -4282.616589381289, -16820.22414448549, -0.07200000000000001, 1.002, 0.096, 192.0, 0.0, 0.0, 0.0, 0.0, 0.0, 0.0, 0.0, 0.0, 0.0, 1.681420984593119E9, 0.0, 2023-04-13 17:23:04.593
12.0, -6296.53111654891, 18709.058309681215, -31135.01890123116, -5132.675782761072, 22927.503040731317, -45456.183905146594, -4260.041327481428, -16785.400126624125, -0.078, 1.002, 0.1, 192.0, 253.0, 144.0, 31.0, 80.0, 3.0, 32.0, 0.0, 0.0, 0.0, 1.6814209845931528E9, 0.0, 2023-04-13 17:23:04.593
13.0, -6260.14247657567, 18718.42369060799, -31105.82752297253, -5073.689529143516, 22834.296266352685, -45424.91381465361, -4235.968498703062, -16773.352536362712, -0.078, 1.002, 0.1, 192.0, 0.0, 0.0, 0.0, 0.0, 0.0, 0.0, 0.0, 0.0, 0.0, 1.681420984593187E9, 0.0, 2023-04-13 17:23:04.593
14.0, -6224.200871491536, 18730.627743080586, -31124.4465261038, -4960.008556843824, 23003.07428873471, -45427.104285610236, -4259.929568759152, -16813.965656038006, -0.078, 1.002, 0.1, 192.0, 0.0, 0.0, 0.0, 0.0, 0.0, 0.0, 0.0, 0.0, 0.0, 1.6814209845932171E9, 0.0, 2023-04-13 17:23:04.593
15.0, -6256.633252696187, 18718.826022008183, -31145.814793803074, -5024.828615764215, 23089.642595010115, -45454.68633826808, -4280.716691102587, -16823.4204439426, -0.078, 1.002, 0.1, 192.0, 0.0, 0.0, 0.0, 0.0, 0.0, 0.0, 0.0, 0.0, 0.0, 1.6814209845932531E9, 0.0, 2023-04-13 17:23:04.593
16.0, -6284.349415820768, 18713.394548105545, -31127.06168020507, -5117.878927931658, 22957.610840512614, -45447.95846318704, -4255.101591956805, -16785.556588835312, -0.078, 1.002, 0.1, 192.0, 0.0, 0.0, 0.0, 0.0, 0.0, 0.0, 0.0, 0.0, 0.0, 1.6814209845932882E9, 0.0, 2023-04-13 17:23:04.593
17.0, -6253.61576719472, 18728.169051190504, -31096.4397903013, -5086.608837438684, 22823.56742901414, -45415.30256453784, -4222.825672963342, -16760.902614701106, -0.078, 1.002, 0.1, 192.0, 0.0, 0.0, 0.0, 0.0, 0.0, 0.0, 0.0, 0.0, 0.0, 1.6814209845933242E9, 0.0, 2023-04-13 17:23:04.593
18.0, -6213.360275430712, 18741.557746119233, -31113.471819576243, -4957.7733823982935, 22962.707038248427, -45415.25786104892, -4241.958766217085, -16800.174629709083, -0.078, 1.002, 0.1, 192.0, 0.0, 0.0, 0.0, 0.0, 0.0, 0.0, 0.0, 0.0, 0.0, 1.6814209845933723E9, 0.0, 2023-04-13 17:23:04.593
19.0, -6246.6196711802095, 18726.246801167348, -31145.278351936147, -4999.951124185458, 23086.22277810845, -45451.40063183315, -4271.440717153635, -16822.86165033122, -0.078, 1.002, 0.1, 192.0, 0.0, 0.0, 0.0, 0.0, 0.0, 0.0, 0.0, 0.0, 0.0, 1.6814209845934167E9, 0.0, 2023-04-13 17:23:04.593
20.0, -6283.880029187207, 18708.968902703393, -31139.69041582232, -5103.39499752462, 22999.654471833048, -45460.85541973775, -4260.823638537364, -16797.13479246316, -0.078, 1.002, 0.1, 192.0, 0.0, 0.0, 0.0, 0.0, 0.0, 0.0, 0.0, 0.0, 0.0, 1.6814209845934556E9, 0.0, 2023-04-13 17:23:04.593
21.0, -6271.340700547779, 18715.294446384247, -31110.58844454151, -5114.839090685737, 22834.81035647516, -45434.90504442514, -4231.721667256555, -16767.16110314859, -0.078, 1.002, 0.1, 192.0, 0.0, 0.0, 0.0, 0.0, 0.0, 0.0, 0.0, 0.0, 0.0, 1.6814209845934925E9, 0.0, 2023-04-13 17:23:04.593
22.0, -6225.6090313922205, 18735.925106516494, -31113.337709109514, -4974.894818651059, 22926.273694786276, -45418.02947736138, -4238.114266170772, -16794.407879639613, -0.074, 1.0, 0.096, 192.0, 253.0, 176.0, 31.0, 64.0, 3.0, 0.0, 0.0, 0.0, 0.0, 1.681420984593534E9, 0.0, 2023-04-13 17:23:04.593
23.0, -6242.194025778059, 18729.621914580097, -31137.991683243716, -4979.991016386869, 23062.887556897113, -45442.5269892844, -4263.617606594277, -16815.70909210552, -0.074, 1.0, 0.096, 192.0, 0.0, 0.0, 0.0, 0.0, 0.0, 0.0, 0.0, 0.0, 0.0, 1.6814209845937E9, 0.0, 2023-04-13 17:23:04.593
24.0, -6287.903343189161, 18706.443155579946, -31138.326959410544, -5081.914971103069, 23017.021777274822, -45454.37341384571, -4262.388260649235, -16799.548780864334, -0.074, 1.0, 0.096, 192.0, 0.0, 0.0, 0.0, 0.0, 0.0, 0.0, 0.0, 0.0, 0.0, 1.681420984593747E9, 0.0, 2023-04-13 17:23:04.593
25.0, -6281.086061130293, 18712.07579518268, -31100.977194425726, -5121.119930877678, 22844.33219961312, -45426.43373327658, -4227.005449176485, -16758.287460599837, -0.074, 1.0, 0.096, 192.0, 0.0, 0.0, 0.0, 0.0, 0.0, 0.0, 0.0, 0.0, 0.0, 1.6814209845937867E9, 0.0, 2023-04-13 17:23:04.593
26.0, -6228.626516893687, 18731.499461114345, -31094.71870597824, -4981.89091466557, 22894.511865915283, -45402.629125431675, -4229.151216644194, -16783.16495217859, -0.074, 1.0, 0.096, 192.0, 0.0, 0.0, 0.0, 0.0, 0.0, 0.0, 0.0, 0.0, 0.0, 1.6814209845938458E9, 0.0, 2023-04-13 17:23:04.593
27.0, -6237.008421064427, 18729.107824457627, -31130.369738384456, -4962.243731289355, 23071.023591878842, -45434.74858221395, -4269.831391552852, -16824.023941042895, -0.074, 1.0, 0.096, 192.0, 0.0, 0.0, 0.0, 0.0, 0.0, 0.0, 0.0, 0.0, 0.0, 1.6814209845938847E9, 0.0, 2023-04-13 17:23:04.593
28.0, -6273.106488359748, 18716.635551051564, -31135.287122164624, -5058.624453380639, 23046.61548693365, -45454.23930337898, -4271.12779273126, -16811.171687981092, -0.074, 1.0, 0.096, 192.0, 0.0, 0.0, 0.0, 0.0, 0.0, 0.0, 0.0, 0.0, 0.0, 1.681420984593923E9, 0.0, 2023-04-13 17:23:04.593
29.0, -6280.8401919412845, 18712.791051005253, -31112.845970731494, -5123.511567534396, 22876.161083717478, -45440.80590496134, -4242.517559828468, -16776.057097441804, -0.074, 1.0, 0.096, 192.0, 0.0, 0.0, 0.0, 0.0, 0.0, 0.0, 0.0, 0.0, 0.0, 1.6814209845939543E9, 0.0, 2023-04-13 17:23:04.593
30.0, -6231.8228163507965, 18732.03590298127, -31102.76533398215, -5007.394255089075, 22882.95601403189, -45414.65436394863, -4233.912138213174, -16786.361251635703, -0.074, 1.0, 0.096, 192.0, 0.0, 0.0, 0.0, 0.0, 0.0, 0.0, 0.0, 0.0, 0.0, 1.6814209845939848E9, 0.0, 2023-04-13 17:23:04.593
31.0, -6222.122159257193, 18743.055312997738, -31130.07916570654, -4949.592643927651, 23050.147062557586, -45432.08872462377, -4264.6010833503115, -16818.659522373622, -0.074, 1.0, 0.096, 192.0, 0.0, 0.0, 0.0, 0.0, 0.0, 0.0, 0.0, 0.0, 0.0, 1.6814209845940151E9, 0.0, 2023-04-13 17:23:04.594
32.0, -6262.601168465754, 18729.93483900247, -31140.629189089443, -5038.28436592631, 23063.51340574186, -45452.09353591127, -4274.189981721638, -16812.915124048606, -0.068, 1.002, 0.094, 192.0, 253.0, 224.0, 31.0, 80.0, 2.0, 240.0, 0.0, 0.0, 0.0, 1.6814209845940635E9, 0.0, 2023-04-13 17:23:04.594
33.0, -6282.449517542067, 18720.61416156461, -31117.606892300475, -5124.718561734982, 22911.14156379003, -45440.26946309441, -4249.714821543076, -16776.772353264376, -0.068, 1.002, 0.094, 192.0, 0.0, 0.0, 0.0, 0.0, 0.0, 0.0, 0.0, 0.0, 0.0, 1.6814209845941033E9, 0.0, 2023-04-13 17:23:04.594
34.0, -6239.221243765503, 18733.60052509314, -31091.745923965686, -5032.316450156743, 22860.447807365395, -45404.03728533236, -4229.128864899739, -16772.681984029055, -0.068, 1.002, 0.094, 192.0, 0.0, 0.0, 0.0, 0.0, 0.0, 0.0, 0.0, 0.0, 0.0, 1.6814209845941424E9, 0.0, 2023-04-13 17:23:04.594
35.0, -6225.944307559051, 18734.494594871354, -31121.093764435504, -4945.815199114704, 23044.33560899921, -45419.25882330642, -4262.768240304976, -16817.27371421739, -0.068, 1.002, 0.094, 192.0, 0.0, 0.0, 0.0, 0.0, 0.0, 0.0, 0.0, 0.0, 0.0, 1.6814209845941813E9, 0.0, 2023-04-13 17:23:04.594
36.0, -6264.7022324445525, 18720.770623775796, -31136.918799509862, -5024.672153553028, 23088.90498744309, -45448.04787016486, -4279.3308829463585, -16818.056025273327, -0.068, 1.002, 0.094, 192.0, 0.0, 0.0, 0.0, 0.0, 0.0, 0.0, 0.0, 0.0, 0.0, 1.681420984594218E9, 0.0, 2023-04-13 17:23:04.594
37.0, -6288.462136800545, 18712.23225739387, -31118.456258589777, -5114.503814518906, 22940.69056995995, -45442.03525090638, -4254.811019278886, -16780.259225399404, -0.068, 1.002, 0.094, 192.0, 0.0, 0.0, 0.0, 0.0, 0.0, 0.0, 0.0, 0.0, 0.0, 1.6814209845942512E9, 0.0, 2023-04-13 17:23:04.594
38.0, -6251.134723560182, 18724.078681955183, -31095.948051923282, -5056.836313824215, 22843.10285366808, -45412.44154124756, -4230.827597478342, -16766.490550814935, -0.068, 1.002, 0.094, 192.0, 0.0, 0.0, 0.0, 0.0, 0.0, 0.0, 0.0, 0.0, 0.0, 1.6814209845944097E9, 0.0, 2023-04-13 17:23:04.594
39.0, -6215.550746387333, 18737.445025139456, -31117.316319622558, -4942.5741961686845, 22996.346413653664, -45414.98964011546, -4253.045231466917, -16803.99677801094, -0.068, 1.002, 0.094, 192.0, 0.0, 0.0, 0.0, 0.0, 0.0, 0.0, 0.0, 0.0, 0.0, 1.6814209845944493E9, 0.0, 2023-04-13 17:23:04.594
40.0, -6254.152209061648, 18720.971789475894, -31151.112157238982, -5006.768406244327, 23097.95744394749, -45449.36662308772, -4282.549534147923, -16821.56524915281, -0.068, 1.002, 0.094, 192.0, 0.0, 0.0, 0.0, 0.0, 0.0, 0.0, 0.0, 0.0, 0.0, 1.6814209845944884E9, 0.0, 2023-04-13 17:23:04.594
41.0, -6286.0034449104605, 18713.50630682782, -31134.795383786608, -5107.507718504396, 22975.536939565773, -45444.76216372993, -4264.243455439027, -16784.528408590366, -0.068, 1.002, 0.094, 192.0, 0.0, 0.0, 0.0, 0.0, 0.0, 0.0, 0.0, 0.0, 0.0, 1.6814209845945268E9, 0.0, 2023-04-13 17:23:04.594
42.0, -6259.494275986466, 18726.917353501005, -31101.357174081466, -5082.026729825346, 22832.70929249636, -45412.26272729191, -4234.850911480297, -16760.142655389627, -0.07, 1.004, 0.098, 192.0, 253.0, 208.0, 31.0, 96.0, 3.0, 16.0, 0.0, 0.0, 0.0, 1.681420984594566E9, 0.0, 2023-04-13 17:23:04.594
43.0, -6227.464226182012, 18734.740464060364, -31123.150124925392, -4955.64996667504, 22980.275509390296, -45417.00129711644, -4263.259978682992, -16808.981217024473, -0.07, 1.004, 0.098, 192.0, 0.0, 0.0, 0.0, 0.0, 0.0, 0.0, 0.0, 0.0, 0.0, 1.6814209845946078E9, 0.0, 2023-04-13 17:23:04.594
44.0, -6252.274662527402, 18725.151565689037, -31148.094671737515, -4996.620714261618, 23098.42683058105, -45447.04204166437, -4289.433871440157, -16826.32617072179, -0.07, 1.004, 0.098, 192.0, 0.0, 0.0, 0.0, 0.0, 0.0, 0.0, 0.0, 0.0, 0.0, 1.6814209845946665E9, 0.0, 2023-04-13 17:23:04.594
45.0, -6286.405776310656, 18709.19242014795, -31139.35513965549, -5099.684607945038, 23006.248236447365, -45450.50656205494, -4276.760432333998, -16798.587655852756, -0.07, 1.004, 0.098, 192.0, 0.0, 0.0, 0.0, 0.0, 0.0, 0.0, 0.0, 0.0, 0.0, 1.6814209845947013E9, 0.0, 2023-04-13 17:23:04.594
46.0, -6273.57587499331, 18714.780356261774, -31104.01703167165, -5114.325000563264, 22831.14467038449, -45422.70099195254, -4238.896577226707, -16764.36713509168, -0.07, 1.004, 0.098, 192.0, 0.0, 0.0, 0.0, 0.0, 0.0, 0.0, 0.0, 0.0, 0.0, 1.6814209845947404E9, 0.0, 2023-04-13 17:23:04.594
47.0, -6228.246537237947, 18732.102958214637, -31106.07339216154, -4975.118336095612, 22925.1114040746, -45406.540680711354, -4242.048173194906, -16793.46910637249, -0.07, 1.004, 0.098, 192.0, 0.0, 0.0, 0.0, 0.0, 0.0, 0.0, 0.0, 0.0, 0.0, 1.6814209845947824E9, 0.0, 2023-04-13 17:23:04.594
48.0, -6253.436953239078, 18717.820193507694, -31145.412462402877, -4990.496336280863, 23089.866112454667, -45443.46576255152, -4280.9178568026855, -16830.66240914612, -0.07, 1.004, 0.098, 192.0, 0.0, 0.0, 0.0, 0.0, 0.0, 0.0, 0.0, 0.0, 0.0, 1.6814209845948195E9, 0.0, 2023-04-13 17:23:04.594
49.0, -6297.358131093756, 18698.75415548732, -31151.358026427988, -5099.0587591002895, 23046.906059611567, -45462.97883546101, -4280.292007957936, -16815.507926405422, -0.07, 1.004, 0.098, 192.0, 0.0, 0.0, 0.0, 0.0, 0.0, 0.0, 0.0, 0.0, 0.0, 1.681420984594856E9, 0.0, 2023-04-13 17:23:04.594
50.0, -6294.00536942546, 18702.665710766996, -31122.390165613913, -5140.700059020527, 22868.740304558316, -45441.8787886952, -4247.03261220844, -16779.07458294327, -0.07, 1.004, 0.098, 192.0, 0.0, 0.0, 0.0, 0.0, 0.0, 0.0, 0.0, 0.0, 0.0, 1.681420984594905E9, 0.0, 2023-04-13 17:23:04.594
51.0, -6243.37866823419, 18722.022321465294, -31118.67977603433, -5007.014275433335, 22910.381604478553, -45420.97990762948, -4246.6973360416105, -16801.94041752105, -0.07, 1.004, 0.098, 192.0, 0.0, 0.0, 0.0, 0.0, 0.0, 0.0, 0.0, 0.0, 0.0, 1.6814209845949397E9, 0.0, 2023-04-13 17:23:04.594
52.0, -6243.333964745279, 18726.336208145167, -31150.26279094968, -4980.929789653992, 23068.85547266668, -45451.288873110876, -4281.789574836442, -16837.345580738256, -0.074, 0.998, 0.094, 192.0, 253.0, 176.0, 31.0, 48.0, 2.0, 240.0, 0.0, 0.0, 0.0, 1.6814209845949807E9, 0.0, 2023-04-13 17:23:04.594
53.0, -6279.141459362681, 18712.500478327333, -31157.25888696419, -5077.444622212008, 23042.011027575856, -45469.63965530869, -4284.985874293551, -16823.88983057616, -0.074, 0.998, 0.094, 192.0, 0.0, 0.0, 0.0, 0.0, 0.0, 0.0, 0.0, 0.0, 0.0, 1.6814209845950208E9, 0.0, 2023-04-13 17:23:04.595
54.0, -6290.496145545977, 18706.2643416243, -31131.53202909613, -5145.416277100597, 22870.61785109256, -45452.09353591127, -4256.934435002141, -16783.209655667502, -0.074, 0.998, 0.094, 192.0, 0.0, 0.0, 0.0, 0.0, 0.0, 0.0, 0.0, 0.0, 0.0, 1.681420984595176E9, 0.0, 2023-04-13 17:23:04.595
55.0, -6243.602185678743, 18718.580152819177, -31114.63411028792, -5025.94620298698, 22861.99007773281, -45418.007125616925, -4243.679850540144, -16787.27767315837, -0.074, 0.998, 0.094, 192.0, 0.0, 0.0, 0.0, 0.0, 0.0, 0.0, 0.0, 0.0, 0.0, 1.6814209845952091E9, 0.0, 2023-04-13 17:23:04.595
56.0, -6234.929708830084, 18719.451870852932, -31146.462994392277, -4966.937597624969, 23044.447367721485, -45436.670832237105, -4277.542743389934, -16825.588563154764, -0.074, 0.998, 0.094, 192.0, 0.0, 0.0, 0.0, 0.0, 0.0, 0.0, 0.0, 0.0, 0.0, 1.681420984595242E9, 0.0, 2023-04-13 17:23:04.595
57.0, -6276.638063983687, 18703.291559611745, -31160.656352121398, -5061.373717948642, 23060.38416151812, -45461.23539939349, -4288.003359795018, -16819.441833429555, -0.074, 0.998, 0.094, 192.0, 0.0, 0.0, 0.0, 0.0, 0.0, 0.0, 0.0, 0.0, 0.0, 1.6814209845952756E9, 0.0, 2023-04-13 17:23:04.595
58.0, -6297.9169247051395, 18697.547161286733, -31131.710843051773, -5142.599957299228, 22893.371926948064, -45447.13144864219, -4256.286234412937, -16775.766524763887, -0.074, 0.998, 0.094, 192.0, 0.0, 0.0, 0.0, 0.0, 0.0, 0.0, 0.0, 0.0, 0.0, 1.681420984595308E9, 0.0, 2023-04-13 17:23:04.595
59.0, -6257.907302130139, 18709.99708294834, -31110.387278841412, -5052.075392255234, 22849.22723164883, -45415.52608198239, -4238.784818504431, -16774.917158474585, -0.074, 0.998, 0.094, 192.0, 0.0, 0.0, 0.0, 0.0, 0.0, 0.0, 0.0, 0.0, 0.0, 1.6814209845953417E9, 0.0, 2023-04-13 17:23:04.595
60.0, -6235.063819296815, 18720.211830164415, -31136.471764620754, -4960.7685161553045, 23034.433786205507, -45426.187864087566, -4269.809039808398, -16818.23483922897, -0.074, 0.998, 0.094, 192.0, 0.0, 0.0, 0.0, 0.0, 0.0, 0.0, 0.0, 0.0, 0.0, 1.6814209845953772E9, 0.0, 2023-04-13 17:23:04.595
61.0, -6271.720680203519, 18705.817306735196, -31153.794366573617, -5037.010316492358, 23086.28983334182, -45452.51821905592, -4284.784708593454, -16821.65465613063, -0.074, 0.998, 0.094, 192.0, 0.0, 0.0, 0.0, 0.0, 0.0, 0.0, 0.0, 0.0, 0.0, 1.68142098459541E9, 0.0, 2023-04-13 17:23:04.595
62.0, -6297.29107586039, 18695.13317288556, -31134.951845997795, -5130.977050182468, 22942.746930449837, -45447.04204166437, -4260.063679225884, -16784.61781556819, -0.07, 1.0, 0.1, 192.0, 253.0, 208.0, 31.0, 64.0, 3.0, 32.0, 0.0, 0.0, 0.0, 1.681420984595442E9, 0.0, 2023-04-13 17:23:04.595
63.0, -6263.137610332681, 18706.71137651341, -31110.431982330323, -5076.10351754469, 22842.1417286565, -45415.81665466031, -4234.828559735842, -16772.436114840046, -0.07, 1.0, 0.1, 192.0, 0.0, 0.0, 0.0, 0.0, 0.0, 0.0, 0.0, 0.0, 0.0, 1.681420984595476E9, 0.0, 2023-04-13 17:23:04.595
64.0, -6233.052162295838, 18719.89890574204, -31132.49315410771, -4963.338966767665, 23006.851733547657, -45424.19855883105, -4263.483496127546, -16819.285371218368, -0.07, 1.0, 0.1, 192.0, 0.0, 0.0, 0.0, 0.0, 0.0, 0.0, 0.0, 0.0, 0.0, 1.6814209845955338E9, 0.0, 2023-04-13 17:23:04.595
65.0, -6259.38251726419, 18707.493687569346, -31157.191831730826, -5024.09100819719, 23092.99535667841, -45456.385070846685, -4288.5621534064, -16832.80817661383, -0.07, 1.0, 0.1, 192.0, 0.0, 0.0, 0.0, 0.0, 0.0, 0.0, 0.0, 0.0, 0.0, 1.681420984595566E9, 0.0, 2023-04-13 17:23:04.595
66.0, -6281.376633808212, 18698.776507231774, -31142.17145945686, -5120.561137266295, 22963.69051500446, -45454.172248145616, -4269.876095041764, -16798.162972708105, -0.07, 1.0, 0.1, 192.0, 0.0, 0.0, 0.0, 0.0, 0.0, 0.0, 0.0, 0.0, 0.0, 1.6814209845955977E9, 0.0, 2023-04-13 17:23:04.595
67.0, -6259.404869008645, 18707.89601896954, -31112.331880609025, -5096.8906398881245, 22816.526629510718, -45422.075143107795, -4239.902405727196, -16773.598405551722, -0.07, 1.0, 0.1, 192.0, 0.0, 0.0, 0.0, 0.0, 0.0, 0.0, 0.0, 0.0, 0.0, 1.6814209845956297E9, 0.0, 2023-04-13 17:23:04.595
68.0, -6230.61582215021, 18713.238085894358, -31132.78372678563, -4966.60232145814, 22964.53988129376, -45424.08680010877, -4265.5398566174335, -16821.118214263704, -0.07, 1.0, 0.1, 192.0, 0.0, 0.0, 0.0, 0.0, 0.0, 0.0, 0.0, 0.0, 0.0, 1.681420984595662E9, 0.0, 2023-04-13 17:23:04.595
69.0, -6260.321290531313, 18702.55395204472, -31162.60095388901, -5003.102720153656, 23094.559978790283, -45457.636768536184, -4296.742891877043, -16843.492310463465, -0.07, 1.0, 0.1, 192.0, 0.0, 0.0, 0.0, 0.0, 0.0, 0.0, 0.0, 0.0, 0.0, 1.681420984595735E9, 0.0, 2023-04-13 17:23:04.595
70.0, -6296.0393781708935, 18687.42182104848, -31157.97414278676, -5108.647657471616, 23006.762326569835, -45466.890390740686, -4285.1423365047385, -16817.586638639765, -0.07, 1.0, 0.1, 192.0, 0.0, 0.0, 0.0, 0.0, 0.0, 0.0, 0.0, 0.0, 0.0, 1.6814209845958116E9, 0.0, 2023-04-13 17:23:04.595
71.0, -6287.009273410949, 18692.719184484387, -31124.893560992907, -5124.673858246071, 22833.80452797467, -45439.24128284947, -4249.267786653971, -16782.74026903394, -0.07, 1.0, 0.1, 192.0, 0.0, 0.0, 0.0, 0.0, 0.0, 0.0, 0.0, 0.0, 0.0, 1.681420984595844E9, 0.0, 2023-04-13 17:23:04.595
72.0, -6246.507912457933, 18705.75025150183, -31131.48732560722, -4986.003635645347, 22926.430156997463, -45423.79622743085, -4257.470876869068, -16813.026882770882, -0.06, 1.0, 0.1, 192.0, 254.0, 32.0, 31.0, 64.0, 3.0, 32.0, 0.0, 0.0, 0.0, 1.6814209845958767E9, 0.0, 2023-04-13 17:23:04.595
73.0, -6263.003499865949, 18701.905751455517, -31163.718541111775, -4992.329179326199, 23077.930280915534, -45452.205294633546, -4287.109290016805, -16837.993781327463, -0.06, 1.0, 0.1, 192.0, 0.0, 0.0, 0.0, 0.0, 0.0, 0.0, 0.0, 0.0, 0.0, 1.6814209845959117E9, 0.0, 2023-04-13 17:23:04.595
74.0, -6301.828479984818, 18692.048632150727, -31163.070340522572, -5095.258962542887, 23022.341492455183, -45460.60955054874, -4278.257999212504, -16812.289275203857, -0.06, 1.0, 0.1, 192.0, 0.0, 0.0, 0.0, 0.0, 0.0, 0.0, 0.0, 0.0, 0.0, 1.681420984595944E9, 0.0, 2023-04-13 17:23:04.595
75.0, -6304.778910252919, 18690.6628239945, -31138.349311155, -5136.676745018572, 22852.602345061583, -45437.654308993144, -4247.233777908537, -16776.928815475563, -0.06, 1.0, 0.1, 192.0, 0.0, 0.0, 0.0, 0.0, 0.0, 0.0, 0.0, 0.0, 0.0, 1.6814209845959778E9, 0.0, 2023-04-13 17:23:04.595
76.0, -6258.309633530335, 18705.50438231282, -31134.482459364233, -5004.577935287707, 22902.24556949682, -45414.00616335942, -4246.36205987478, -16795.70428081802, -0.06, 1.0, 0.1, 192.0, 0.0, 0.0, 0.0, 0.0, 0.0, 0.0, 0.0, 0.0, 0.0, 1.6814209845960095E9, 0.0, 2023-04-13 17:23:04.596
77.0, -6261.260063798436, 18705.146754401536, -31163.629134133953, -4971.720870938405, 23074.778684947334, -45435.75441071444, -4277.766260834487, -16829.254249245438, -0.06, 1.0, 0.1, 192.0, 0.0, 0.0, 0.0, 0.0, 0.0, 0.0, 0.0, 0.0, 0.0, 1.6814209845960424E9, 0.0, 2023-04-13 17:23:04.596
78.0, -6301.448500329077, 18690.4616582944, -31169.26177373669, -5067.587502907218, 23060.36180977366, -45453.4793440675, -4282.191906236638, -16819.106557262727, -0.06, 1.0, 0.1, 192.0, 0.0, 0.0, 0.0, 0.0, 0.0, 0.0, 0.0, 0.0, 0.0, 1.6814209845960743E9, 0.0, 2023-04-13 17:23:04.596
79.0, -6305.136538164204, 18693.970882173882, -31134.370700641957, -5130.708829249004, 22874.75292381679, -45431.82050369031, -4247.636109308733, -16776.16885616408, -0.06, 1.0, 0.1, 192.0, 0.0, 0.0, 0.0, 0.0, 0.0, 0.0, 0.0, 0.0, 0.0, 1.681420984596108E9, 0.0, 2023-04-13 17:23:04.596
80.0, -6254.845113139762, 18712.165202160504, -31117.271616133647, -5012.982191202902, 22866.974516746344, -45402.3162010093, -4236.370830103258, -16786.13773419115, -0.06, 1.0, 0.1, 192.0, 0.0, 0.0, 0.0, 0.0, 0.0, 0.0, 0.0, 0.0, 0.0, 1.68142098459614E9, 0.0, 2023-04-13 17:23:04.596
81.0, -6242.9763368339945, 18719.317760386202, -31143.244343190712, -4949.525588694285, 23041.02755081982, -45419.95172738454, -4264.757545561498, -16821.922877064095, -0.06, 1.0, 0.1, 192.0, 0.0, 0.0, 0.0, 0.0, 0.0, 0.0, 0.0, 0.0, 0.0, 1.681420984596172E9, 0.0, 2023-04-13 17:23:04.596
82.0, -6285.735223976997, 18696.586036275155, -31159.225840476258, -5035.982136247413, 23067.626126721636, -45444.918625941114, -4279.375586435269, -16823.75572010943, -0.056, 1.002, 0.096, 192.0, 254.0, 64.0, 31.0, 80.0, 3.0, 0.0, 0.0, 0.0, 0.0, 1.6814209845962036E9, 0.0, 2023-04-13 17:23:04.596
83.0, -6306.634105042709, 18688.092373382136, -31140.74094781172, -5124.9420791795355, 22912.125040546067, -45436.93905317057, -4257.135600702239, -16791.904484260616, -0.056, 1.002, 0.096, 192.0, 0.0, 0.0, 0.0, 0.0, 0.0, 0.0, 0.0, 0.0, 0.0, 1.6814209845962389E9, 0.0, 2023-04-13 17:23:04.596
84.0, -6263.808162666341, 18703.671539267485, -31119.81971500155, -5039.670174082538, 22845.0921589246, -45404.68548592156, -4236.527292314446, -16788.104687703217, -0.056, 1.002, 0.096, 192.0, 0.0, 0.0, 0.0, 0.0, 0.0, 0.0, 0.0, 0.0, 0.0, 1.6814209845962708E9, 0.0, 2023-04-13 17:23:04.596
85.0, -6245.6808979130865, 18708.924199214485, -31151.514488639175, -4949.346774738643, 23021.469774421428, -45419.90702389563, -4271.328958431359, -16834.261040003425, -0.056, 1.002, 0.096, 192.0, 0.0, 0.0, 0.0, 0.0, 0.0, 0.0, 0.0, 0.0, 0.0, 1.681420984596351E9, 0.0, 2023-04-13 17:23:04.596
86.0, -6283.38829080919, 18697.03307116426, -31177.710733140797, -5030.528310600318, 23074.80103669179, -45455.535704557384, -4294.015979053495, -16843.46995871901, -0.056, 1.002, 0.096, 192.0, 0.0, 0.0, 0.0, 0.0, 0.0, 0.0, 0.0, 0.0, 0.0, 1.681420984596388E9, 0.0, 2023-04-13 17:23:04.596
87.0, -6308.109320176759, 18688.874684438073, -31161.036331777137, -5124.517396034885, 22929.40293901002, -45451.80296323335, -4269.741984575032, -16807.438946657057, -0.056, 1.002, 0.096, 192.0, 0.0, 0.0, 0.0, 0.0, 0.0, 0.0, 0.0, 0.0, 0.0, 1.6814209845964203E9, 0.0, 2023-04-13 17:23:04.596
88.0, -6280.504915774455, 18698.530638042765, -31130.593255829008, -5071.700223886994, 22827.85896394956, -45417.78360817237, -4241.489379583523, -16789.043460970337, -0.056, 1.002, 0.096, 192.0, 0.0, 0.0, 0.0, 0.0, 0.0, 0.0, 0.0, 0.0, 0.0, 1.681420984596449E9, 0.0, 2023-04-13 17:23:04.596
89.0, -6245.323270001802, 18717.55197257423, -31143.624322846452, -4947.156303782022, 22978.397962856052, -45412.910927881116, -4261.740060060031, -16821.5205456639, -0.056, 1.002, 0.096, 192.0, 0.0, 0.0, 0.0, 0.0, 0.0, 0.0, 0.0, 0.0, 0.0, 1.681420984596476E9, 0.0, 2023-04-13 17:23:04.596
90.0, -6275.9675116500275, 18707.538391058253, -31165.953715557305, -4997.8053567177485, 23079.22668209394, -45440.56003577233, -4287.869249328286, -16834.484557447977, -0.056, 1.002, 0.096, 192.0, 0.0, 0.0, 0.0, 0.0, 0.0, 0.0, 0.0, 0.0, 0.0, 1.6814209845965087E9, 0.0, 2023-04-13 17:23:04.596
91.0, -6311.10445393377, 18689.925216427473, -31152.766186328674, -5101.428044012552, 22966.171558639, -45442.92932068459, -4274.972292777574, -16804.399109411133, -0.056, 1.002, 0.096, 192.0, 0.0, 0.0, 0.0, 0.0, 0.0, 0.0, 0.0, 0.0, 0.0, 1.6814209845965357E9, 0.0, 2023-04-13 17:23:04.596
92.0, -6285.690520488086, 18698.664748509498, -31123.50775283668, -5087.525258961351, 22825.13205112601, -45415.079047093284, -4244.842141251819, -16781.108591688706, -0.058, 1.0, 0.092, 192.0, 254.0, 48.0, 31.0, 64.0, 2.0, 224.0, 0.0, 0.0, 0.0, 1.6814209845965652E9, 0.0, 2023-04-13 17:23:04.596
93.0, -6246.9102438581285, 18712.165202160504, -31139.332787911033, -4957.169885298001, 22967.579718539684, -45411.52511972489, -4265.5398566174335, -16820.268847974403, -0.058, 1.0, 0.092, 192.0, 0.0, 0.0, 0.0, 0.0, 0.0, 0.0, 0.0, 0.0, 0.0, 1.6814209845966032E9, 0.0, 2023-04-13 17:23:04.596
94.0, -6269.619616224721, 18703.60448403412, -31167.987724302737, -4988.551734513251, 23094.51527530137, -45438.3248613268, -4291.534935418956, -16837.323228993802, -0.058, 1.0, 0.092, 192.0, 0.0, 0.0, 0.0, 0.0, 0.0, 0.0, 0.0, 0.0, 0.0, 1.6814209845966332E9, 0.0, 2023-04-13 17:23:04.596
95.0, -6307.4387678431, 18688.517056526787, -31163.18209924485, -5091.190945052022, 23007.477582392406, -45445.43271606359, -4281.454298669612, -16811.55166763683, -0.058, 1.0, 0.092, 192.0, 0.0, 0.0, 0.0, 0.0, 0.0, 0.0, 0.0, 0.0, 0.0, 1.6814209845966673E9, 0.0, 2023-04-13 17:23:04.596
96.0, -6296.240543870991, 18694.194399618435, -31128.87217150595, -5105.607820225695, 22835.816184975647, -45415.481378493474, -4245.892673241219, -16775.833579997252, -0.058, 1.0, 0.092, 192.0, 0.0, 0.0, 0.0, 0.0, 0.0, 0.0, 0.0, 0.0, 0.0, 1.6814209845967045E9, 0.0, 2023-04-13 17:23:04.596
97.0, -6246.6196711802095, 18712.90280972753, -31128.738061039217, -4962.511952222819, 22927.033654097755, -45396.84002361775, -4247.256129652993, -16801.158106465115, -0.058, 1.0, 0.092, 192.0, 0.0, 0.0, 0.0, 0.0, 0.0, 0.0, 0.0, 0.0, 0.0, 1.6814209845967245E9, 0.0, 2023-04-13 17:23:04.596
98.0, -6263.4281830106, 18704.163277645504, -31163.137395755937, -4967.541094725263, 23091.81071422228, -45428.37833504419, -4281.0966707583275, -16831.28825799087, -0.058, 1.0, 0.092, 192.0, 0.0, 0.0, 0.0, 0.0, 0.0, 0.0, 0.0, 0.0, 0.0, 1.681420984596744E9, 0.0, 2023-04-13 17:23:04.596
99.0, -6305.829442242318, 18686.013661147794, -31166.22193649077, -5074.00245356589, 23043.061559565256, -45444.583349774286, -4279.889676557741, -16815.642036872156, -0.058, 1.0, 0.092, 192.0, 0.0, 0.0, 0.0, 0.0, 0.0, 0.0, 0.0, 0.0, 0.0, 1.6814209845967777E9, 0.0, 2023-04-13 17:23:04.596
100.0, -6298.833346227807, 18696.586036275155, -31131.375566884944, -5118.527128520862, 22863.107664955576, -45422.70099195254, -4246.272652896959, -16777.08527768675, -0.058, 1.0, 0.092, 192.0, 0.0, 0.0, 0.0, 0.0, 0.0, 0.0, 0.0, 0.0, 0.0, 1.6814209845968597E9, 0.0, 2023-04-13 17:23:04.596
101.0, -6250.598281693254, 18718.04371095225, -31126.078203449037, -4988.618789746617, 22903.005528808302, -45401.33272425327, -4246.8761499972525, -16800.107574475715, -0.058, 1.0, 0.092, 192.0, 0.0, 0.0, 0.0, 0.0, 0.0, 0.0, 0.0, 0.0, 0.0, 1.6814209845969E9, 0.0, 2023-04-13 17:23:04.596
102.0, -6254.733354417486, 18712.679292282974, -31160.812814332585, -4964.165981312512, 23078.824350693747, -45434.368602558214, -4285.388205693746, -16842.79940638535, -0.062, 1.004, 0.098, 192.0, 254.0, 16.0, 31.0, 96.0, 3.0, 16.0, 0.0, 0.0, 0.0, 1.6814209845969453E9, 0.0, 2023-04-13 17:23:04.596
103.0, -6292.9324856916055, 18692.294501339737, -31167.27246848017, -5060.926683059536, 23052.963382358957, -45457.010919691435, -4288.271580728481, -16833.925763836596, -0.062, 1.004, 0.098, 192.0, 0.0, 0.0, 0.0, 0.0, 0.0, 0.0, 0.0, 0.0, 0.0, 1.6814209845969875E9, 0.0, 2023-04-13 17:23:04.596
104.0, -6306.567049809343, 18686.281882081257, -31147.759395570683, -5138.554291552817, 22882.39722042051, -45447.734945742486, -4267.640920596233, -16802.342748921248, -0.062, 1.004, 0.098, 192.0, 0.0, 0.0, 0.0, 0.0, 0.0, 0.0, 0.0, 0.0, 0.0, 1.6814209845970256E9, 0.0, 2023-04-13 17:23:04.597
105.0, -6258.242578296969, 18703.55978054521, -31135.041252975614, -5027.734342543405, 22860.268993409754, -45418.65532620613, -4258.722574558566, -16811.775185081387, -0.062, 1.004, 0.098, 192.0, 0.0, 0.0, 0.0, 0.0, 0.0, 0.0, 0.0, 0.0, 0.0, 1.681420984597064E9, 0.0, 2023-04-13 17:23:04.597
106.0, -6257.192046307569, 18699.156486887514, -31171.11696852648, -4964.925940623992, 23049.47651022393, -45440.35887007223, -4299.223935511582, -16859.563214726833, -0.062, 1.004, 0.098, 192.0, 0.0, 0.0, 0.0, 0.0, 0.0, 0.0, 0.0, 0.0, 0.0, 1.6814209850725317E9, 0.0, 2023-04-13 17:23:05.072
107.0, -6302.744901507485, 18680.5598355007, -31186.070285567082, -5057.216293479954, 23083.18294086253, -45465.839858751286, -4313.99843859654, -16855.830473402795, -0.062, 1.004, 0.098, 192.0, 0.0, 0.0, 0.0, 0.0, 0.0, 0.0, 0.0, 0.0, 0.0, 1.6814209850727663E9, 0.0, 2023-04-13 17:23:05.072
108.0, -6315.351285380279, 18683.68907972444, -31152.766186328674, -5141.057686931812, 22892.410801936487, -45448.02551842041, -4278.146240490227, -16803.728557077477, -0.062, 1.004, 0.098, 192.0, 0.0, 0.0, 0.0, 0.0, 0.0, 0.0, 0.0, 0.0, 0.0, 1.6814209850727987E9, 0.0, 2023-04-13 17:23:05.072
109.0, -6270.133706347193, 18697.435402564457, -31128.49219185021, -5053.148275989089, 22824.349740070076, -45414.65436394863, -4254.632205323244, -16797.090088974248, -0.062, 1.004, 0.098, 192.0, 0.0, 0.0, 0.0, 0.0, 0.0, 0.0, 0.0, 0.0, 0.0, 1.681420985072831E9, 0.0, 2023-04-13 17:23:05.072
110.0, -6249.301880514847, 18705.45967882391, -31154.889602051928, -4959.092135321157, 23003.07428873471, -45428.04305887736, -4282.013092280995, -16838.507871449932, -0.062, 1.004, 0.098, 192.0, 0.0, 0.0, 0.0, 0.0, 0.0, 0.0, 0.0, 0.0, 0.0, 1.6814209850728805E9, 0.0, 2023-04-13 17:23:05.072
111.0, -6287.970398422528, 18693.233274606857, -31176.12375928447, -5035.0210112358345, 23063.535757486316, -45455.42394583511, -4299.380397722769, -16843.268793018913, -0.062, 1.004, 0.098, 192.0, 0.0, 0.0, 0.0, 0.0, 0.0, 0.0, 0.0, 0.0, 0.0, 1.6814209850729136E9, 0.0, 2023-04-13 17:23:05.072
112.0, -6314.434863857611, 18683.622024491076, -31155.761320085687, -5129.121855392677, 22927.30187503122, -45448.67371900961, -4275.821659066875, -16804.93555127806, -0.062, 0.998, 0.10200000000000001, 192.0, 254.0, 16.0, 31.0, 48.0, 3.0, 48.0, 0.0, 0.0, 0.0, 1.6814209850729475E9, 0.0, 2023-04-13 17:23:05.072
113.0, -6283.455346042556, 18690.618120505587, -31128.916874994862, -5078.539857690318, 22824.640312747993, -45417.89536689465, -4251.547664588412, -16793.066774972292, -0.062, 0.998, 0.10200000000000001, 192.0, 0.0, 0.0, 0.0, 0.0, 0.0, 0.0, 0.0, 0.0, 0.0, 1.6814209850729773E9, 0.0, 2023-04-13 17:23:05.072
114.0, -6253.951043361551, 18699.156486887514, -31150.486308394233, -4960.433239988475, 22989.953814739445, -45424.75735244243, -4277.587446878844, -16839.424292972602, -0.062, 0.998, 0.10200000000000001, 192.0, 0.0, 0.0, 0.0, 0.0, 0.0, 0.0, 0.0, 0.0, 0.0, 1.68142098507301E9, 0.0, 2023-04-13 17:23:05.073
115.0, -6284.237657098492, 18691.869818195086, -31169.775863859162, -5018.27955463881, 23083.629975751635, -45458.93316971459, -4297.614609910799, -16849.95196461105, -0.062, 0.998, 0.10200000000000001, 192.0, 0.0, 0.0, 0.0, 0.0, 0.0, 0.0, 0.0, 0.0, 0.0, 1.6814209850730765E9, 0.0, 2023-04-13 17:23:05.073
116.0, -6314.568974324343, 18680.85040817862, -31156.297761952614, -5118.147148865121, 22965.88098596108, -45460.028405192905, -4279.174420735171, -16819.37477819619, -0.062, 0.998, 0.10200000000000001, 192.0, 0.0, 0.0, 0.0, 0.0, 0.0, 0.0, 0.0, 0.0, 0.0, 1.6814209850730965E9, 0.0, 2023-04-13 17:23:05.073
117.0, -6292.53015429141, 18687.913559426495, -31128.983930228227, -5112.313343562287, 22820.549943512673, -45436.08968688127, -4253.626376822755, -16799.66053958661, -0.062, 0.998, 0.10200000000000001, 192.0, 0.0, 0.0, 0.0, 0.0, 0.0, 0.0, 0.0, 0.0, 0.0, 1.681420985073116E9, 0.0, 2023-04-13 17:23:05.073
118.0, -6245.546787446355, 18707.247818380336, -31138.97515999975, -4976.4370890184755, 22942.657523472015, -45426.70195421004, -4268.959673519096, -16834.126929536695, -0.062, 0.998, 0.10200000000000001, 192.0, 0.0, 0.0, 0.0, 0.0, 0.0, 0.0, 0.0, 0.0, 0.0, 1.6814209850731351E9, 0.0, 2023-04-13 17:23:05.073
119.0, -6265.4621917560335, 18703.313911356203, -31166.199584746315, -5002.834499220193, 23067.492016254906, -45456.183905146594, -4298.486327944556, -16851.85186288975, -0.062, 0.998, 0.10200000000000001, 192.0, 0.0, 0.0, 0.0, 0.0, 0.0, 0.0, 0.0, 0.0, 0.0, 1.6814209850731544E9, 0.0, 2023-04-13 17:23:05.073
120.0, -6302.074349173827, 18688.74057397134, -31162.93623005584, -5101.740968434927, 22988.0762682052, -45463.247056394466, -4297.547554677433, -16830.193022512558, -0.062, 0.998, 0.10200000000000001, 192.0, 0.0, 0.0, 0.0, 0.0, 0.0, 0.0, 0.0, 0.0, 0.0, 1.6814209850731735E9, 0.0, 2023-04-13 17:23:05.073
121.0, -6293.156003136159, 18693.635606007054, -31133.2978169081, -5124.048009401323, 22832.686940751904, -45437.52019852641, -4269.764336319487, -16800.6663680871, -0.062, 0.998, 0.10200000000000001, 192.0, 0.0, 0.0, 0.0, 0.0, 0.0, 0.0, 0.0, 0.0, 0.0, 1.6814209850731928E9, 0.0, 2023-04-13 17:23:05.073
122.0, -6245.435028724079, 18711.56170506021, -31131.621436073954, -4982.002673387847, 22908.72757538886, -45419.88467215117, -4273.2288567100595, -16827.309647477825, -0.064, 0.996, 0.094, 192.0, 254.0, 0.0, 31.0, 32.0, 2.0, 240.0, 0.0, 0.0, 0.0, 1.681420985073215E9, 0.0, 2023-04-13 17:23:05.073
123.0, -6264.679880700098, 18700.586998532654, -31167.093654524524, -4981.801507687749, 23068.497844755395, -45453.81462023433, -4309.461034472112, -16863.161845584138, -0.064, 0.996, 0.094, 192.0, 0.0, 0.0, 0.0, 0.0, 0.0, 0.0, 0.0, 0.0, 0.0, 1.681420985073236E9, 0.0, 2023-04-13 17:23:05.073
124.0, -6306.499994575977, 18682.83971343514, -31167.205413246804, -5084.507773459884, 23020.46394592094, -45465.99632096247, -4304.90127860323, -16844.744008152964, -0.064, 0.996, 0.094, 192.0, 0.0, 0.0, 0.0, 0.0, 0.0, 0.0, 0.0, 0.0, 0.0, 1.6814209850732553E9, 0.0, 2023-04-13 17:23:05.073
125.0, -6308.668113788141, 18681.386850045546, -31137.567000099065, -5132.474617060973, 22847.23792639231, -45441.45410555054, -4271.954807276107, -16805.80726931182, -0.064, 0.996, 0.094, 192.0, 0.0, 0.0, 0.0, 0.0, 0.0, 0.0, 0.0, 0.0, 0.0, 1.6814209850732746E9, 0.0, 2023-04-13 17:23:05.073
126.0, -6262.981148121495, 18697.681271753463, -31131.643787818408, -5003.013313175835, 22885.548816388706, -45417.96242212802, -4268.870266541275, -16822.347560208746, -0.064, 0.996, 0.094, 192.0, 0.0, 0.0, 0.0, 0.0, 0.0, 0.0, 0.0, 0.0, 0.0, 1.6814209850732937E9, 0.0, 2023-04-13 17:23:05.073
127.0, -6264.344604533268, 18698.351824087124, -31166.512509168686, -4971.720870938405, 23058.819539406246, -45446.66206200863, -4301.839089612852, -16858.087999592783, -0.064, 0.996, 0.094, 192.0, 0.0, 0.0, 0.0, 0.0, 0.0, 0.0, 0.0, 0.0, 0.0, 1.6814209850733128E9, 0.0, 2023-04-13 17:23:05.073
128.0, -6301.716721262542, 18685.588978003143, -31171.631058648953, -5069.755622119382, 23036.914829840047, -45463.98466396149, -4302.442586713146, -16840.474824962, -0.064, 0.996, 0.094, 192.0, 0.0, 0.0, 0.0, 0.0, 0.0, 0.0, 0.0, 0.0, 0.0, 1.681420985073337E9, 0.0, 2023-04-13 17:23:05.073
129.0, -6314.256049901968, 18685.208998347403, -31143.713729824274, -5140.63300378716, 22852.95997297287, -45445.477419552495, -4269.406708408202, -16797.291254674346, -0.064, 0.996, 0.094, 192.0, 0.0, 0.0, 0.0, 0.0, 0.0, 0.0, 0.0, 0.0, 0.0, 1.6814209850733562E9, 0.0, 2023-04-13 17:23:05.073
130.0, -6268.904360402151, 18696.40722231951, -31133.54368609711, -5032.294098412287, 22835.056225664168, -45421.024611118395, -4262.187094949138, -16809.540010635854, -0.064, 0.996, 0.094, 192.0, 0.0, 0.0, 0.0, 0.0, 0.0, 0.0, 0.0, 0.0, 0.0, 1.6814209850733757E9, 0.0, 2023-04-13 17:23:05.073
131.0, -6259.963662620028, 18697.636568264552, -31166.624267890966, -4964.903588879537, 23026.968303557434, -45441.923492184105, -4299.738025634054, -16853.260022790437, -0.064, 0.996, 0.094, 192.0, 0.0, 0.0, 0.0, 0.0, 0.0, 0.0, 0.0, 0.0, 0.0, 1.681420985073416E9, 0.0, 2023-04-13 17:23:05.073
132.0, -6298.72158750553, 18679.665765722486, -31182.963393087794, -5051.9859852774125, 23060.786492918312, -45469.393786119675, -4314.065493829906, -16853.774112912906, -0.066, 1.002, 0.096, 192.0, 253.0, 240.0, 31.0, 80.0, 3.0, 0.0, 0.0, 0.0, 0.0, 1.6814209850734353E9, 0.0, 2023-04-13 17:23:05.073
133.0, -6309.964514966549, 18681.45390527891, -31157.01301777518, -5134.687439762049, 22888.029860023245, -45458.553190058854, -4286.438737683146, -16814.636208371667, -0.066, 1.002, 0.096, 192.0, 0.0, 0.0, 0.0, 0.0, 0.0, 0.0, 0.0, 0.0, 0.0, 1.6814209850734556E9, 0.0, 2023-04-13 17:23:05.073
134.0, -6273.330005804301, 18694.641434507543, -31139.48925012222, -5049.23672070941, 22824.953237170368, -45429.92060541161, -4272.491249143034, -16817.251362472936, -0.066, 1.002, 0.096, 192.0, 0.0, 0.0, 0.0, 0.0, 0.0, 0.0, 0.0, 0.0, 0.0, 1.6814209850734875E9, 0.0, 2023-04-13 17:23:05.073
135.0, -6251.201778793547, 18703.090393911647, -31163.651485878407, -4950.442010216953, 23009.891570793578, -45441.074125894804, -4302.911973346707, -16860.010249615938, -0.066, 1.002, 0.096, 192.0, 0.0, 0.0, 0.0, 0.0, 0.0, 0.0, 0.0, 0.0, 0.0, 1.681420985073507E9, 0.0, 2023-04-13 17:23:05.073
136.0, -6283.120069875726, 18688.718222226886, -31182.672820409876, -5023.174586674522, 23075.80686519228, -45470.55607683135, -4322.983839867573, -16866.268738063423, -0.066, 1.002, 0.096, 192.0, 0.0, 0.0, 0.0, 0.0, 0.0, 0.0, 0.0, 0.0, 0.0, 1.681420985073526E9, 0.0, 2023-04-13 17:23:05.073
137.0, -6306.656456787165, 18681.07392562317, -31166.64661963542, -5120.58348901075, 22938.567154236694, -45468.38795761919, -4303.068435557894, -16833.232859758482, -0.066, 1.002, 0.096, 192.0, 0.0, 0.0, 0.0, 0.0, 0.0, 0.0, 0.0, 0.0, 0.0, 1.6814209850735447E9, 0.0, 2023-04-13 17:23:05.073
138.0, -6271.832438925796, 18699.380004332066, -31136.739985554217, -5071.744927375905, 22823.94740866988, -45434.435657791575, -4274.838182310842, -16815.127946749682, -0.066, 1.002, 0.096, 192.0, 0.0, 0.0, 0.0, 0.0, 0.0, 0.0, 0.0, 0.0, 0.0, 1.681420985073564E9, 0.0, 2023-04-13 17:23:05.073
139.0, -6240.383534477179, 18716.54614407374, -31154.844898563017, -4949.83851311666, 22984.70115479245, -45438.011936904426, -4297.771072121986, -16857.775075170408, -0.066, 1.002, 0.096, 192.0, 0.0, 0.0, 0.0, 0.0, 0.0, 0.0, 0.0, 0.0, 0.0, 1.681420985073583E9, 0.0, 2023-04-13 17:23:05.073
140.0, -6270.379575536201, 18705.392623590546, -31177.844843607527, -5001.716911997427, 23083.339403073718, -45465.839858751286, -4318.558194465422, -16871.074363121315, -0.066, 1.002, 0.096, 192.0, 0.0, 0.0, 0.0, 0.0, 0.0, 0.0, 0.0, 0.0, 0.0, 1.6814209850736017E9, 0.0, 2023-04-13 17:23:05.073
141.0, -6305.538869564399, 18686.12541987007, -31174.40267496141, -5104.378474280653, 22988.83622751668, -45472.00894022095, -4307.382322237769, -16846.375685498202, -0.066, 1.002, 0.096, 192.0, 0.0, 0.0, 0.0, 0.0, 0.0, 0.0, 0.0, 0.0, 0.0, 1.6814209850736208E9, 0.0, 2023-04-13 17:23:05.073
142.0, -6284.81880245433, 18694.775544974273, -31141.612665845474, -5095.9518666210015, 22836.486737309308, -45439.50950378293, -4274.078222999361, -16814.256228715923, -0.062, 1.008, 0.092, 192.0, 254.0, 16.0, 31.0, 128.0, 2.0, 224.0, 0.0, 0.0, 0.0, 1.68142098507364E9, 0.0, 2023-04-13 17:23:05.073
143.0, -6242.104618800237, 18714.176859161482, -31148.854631048995, -4952.811295129215, 22946.993761896345, -45423.9750413865, -4282.102499258816, -16842.307668007335, -0.062, 1.008, 0.092, 192.0, 0.0, 0.0, 0.0, 0.0, 0.0, 0.0, 0.0, 0.0, 0.0, 1.6814209850736609E9, 0.0, 2023-04-13 17:23:05.073
144.0, -6266.378613278701, 18705.83965847965, -31179.74474188623, -4979.7227954534055, 23081.238339094918, -45455.535704557384, -4313.126720562783, -16866.089924107782, -0.062, 1.008, 0.092, 192.0, 0.0, 0.0, 0.0, 0.0, 0.0, 0.0, 0.0, 0.0, 0.0, 1.6814209850736797E9, 0.0, 2023-04-13 17:23:05.073
145.0, -6305.181241653114, 18691.7133559839, -31175.78848311764, -5080.037424568824, 23011.903227794555, -45467.11390818524, -4305.013037325506, -16846.04040933137, -0.062, 1.008, 0.092, 192.0, 0.0, 0.0, 0.0, 0.0, 0.0, 0.0, 0.0, 0.0, 0.0, 1.6814209850736995E9, 0.0, 2023-04-13 17:23:05.073
146.0, -6297.20166888257, 18697.32364384218, -31144.27252343566, -5105.563116736784, 22849.987190960313, -45448.47255330951, -4276.536914889445, -16816.93843805056, -0.062, 1.008, 0.092, 192.0, 0.0, 0.0, 0.0, 0.0, 0.0, 0.0, 0.0, 0.0, 0.0, 1.6814209850737453E9, 0.0, 2023-04-13 17:23:05.073
147.0, -6248.988956092472, 18711.80757424922, -31143.624322846452, -4965.7529551688385, 22940.802328682224, -45436.58142525929, -4285.3211504603805, -16849.19200529957, -0.062, 1.008, 0.092, 192.0, 0.0, 0.0, 0.0, 0.0, 0.0, 0.0, 0.0, 0.0, 0.0, 1.681420985073786E9, 0.0, 2023-04-13 17:23:05.073
148.0, -6261.103601587249, 18708.477164325377, -31172.323962727067, -4961.88610337807, 23104.797077750813, -45468.678530297104, -4315.071322330395, -16878.048107391372, -0.062, 1.008, 0.092, 192.0, 0.0, 0.0, 0.0, 0.0, 0.0, 0.0, 0.0, 0.0, 0.0, 1.6814209850738163E9, 0.0, 2023-04-13 17:23:05.073
