Sample Index, EXG Channel 0, EXG Channel 1, EXG Channel 2, EXG Channel 3, EXG Channel 4, EXG Channel 5, EXG Channel 6, EXG Channel 7, Accel Channel 0, Accel Channel 1, Accel Channel 2, Other, Other, Other, Other, Other, Other, Other, Analog Channel 0, Analog Channel 1, Analog Channel 2, Timestamp, Other, Timestamp (Formatted)
0.0, 0.0, 0.0, 0.0, 0.0, 0.0, 0.0, 0.0, 0.0, -0.132, 0.978, 0.2, 192.0, 251.0, 224.0, 30.0, 144.0, 6.0, 64.0, 0.0, 0.0, 0.0, 1.6814211803492055E9, 0.0, 2023-04-13 17:26:20.349
1.0, -8747.891634451345, 10068.85738001554, -17295.60104556096, -5154.155809182622, 23126.0088832389, -47285.584781835656, -10277.108583105633, -12617.78326246539, -0.132, 0.978, 0.2, 192.0, 0.0, 0.0, 0.0, 0.0, 0.0, 0.0, 0.0, 0.0, 0.0, 1.6814211803652005E9, 0.0, 2023-04-13 17:26:20.365
2.0, -8779.765222044614, 10036.782626722174, -17313.48244112521, -5444.594376634882, 23094.872903212658, -47300.78396806526, -10272.437068514475, -12602.092337857765, -0.132, 0.978, 0.2, 192.0, 0.0, 0.0, 0.0, 0.0, 0.0, 0.0, 0.0, 0.0, 0.0, 1.6814211808439777E9, 0.0, 2023-04-13 17:26:20.843
3.0, -8789.465879138217, 10027.640763239951, -17294.282292638098, -5738.653926688901, 22821.0863853796, -47278.856906754605, -10240.854053599127, -12561.859197838212, -0.132, 0.978, 0.2, 192.0, 0.0, 0.0, 0.0, 0.0, 0.0, 0.0, 0.0, 0.0, 0.0, 1.6814211808440745E9, 0.0, 2023-04-13 17:26:20.844
4.0, -8759.760410757115, 10059.201426410846, -17262.74398121166, -5472.578760692926, 22805.79779217217, -47254.42645006495, -10231.108693016613, -12571.425744465083, -0.132, 0.978, 0.2, 192.0, 0.0, 0.0, 0.0, 0.0, 0.0, 0.0, 0.0, 0.0, 0.0, 1.681421180844231E9, 0.0, 2023-04-13 17:26:20.844
5.0, -8745.58940477245, 10083.184848211391, -17281.51944655412, -5164.884646521169, 23071.448275023497, -47279.616866066084, -10267.251463800843, -12617.045654898366, -0.132, 0.978, 0.2, 192.0, 0.0, 0.0, 0.0, 0.0, 0.0, 0.0, 0.0, 0.0, 0.0, 1.681421180844252E9, 0.0, 2023-04-13 17:26:20.844
6.0, -8781.374547645397, 10043.711667503318, -17312.409557391355, -5392.157184142731, 23094.269406112362, -47303.801453566724, -10273.107620848134, -12613.961114163532, -0.132, 0.978, 0.2, 192.0, 0.0, 0.0, 0.0, 0.0, 0.0, 0.0, 0.0, 0.0, 0.0, 1.6814211808442729E9, 0.0, 2023-04-13 17:26:20.844
7.0, -8797.043120508566, 10023.93037366037, -17302.23951366419, -5728.729752150745, 22838.81131873266, -47285.584781835656, -10244.564443178708, -12573.549160188337, -0.132, 0.978, 0.2, 192.0, 0.0, 0.0, 0.0, 0.0, 0.0, 0.0, 0.0, 0.0, 0.0, 1.6814211808443136E9, 0.0, 2023-04-13 17:26:20.844
8.0, -8772.098573696443, 10044.404571581432, -17270.231815604187, -5563.393898414838, 22742.899983274936, -47258.04743266672, -10228.69470461544, -12573.01271832141, -0.134, 0.976, 0.212, 192.0, 251.0, 208.0, 30.0, 128.0, 6.0, 160.0, 0.0, 0.0, 0.0, 1.681421180844334E9, 0.0, 2023-04-13 17:26:20.844
9.0, -8744.941204183246, 10072.254845172745, -17275.46212380673, -5175.591132115261, 23012.2832074503, -47268.17277290497, -10251.448780470942, -12608.574343749804, -0.134, 0.976, 0.212, 192.0, 0.0, 0.0, 0.0, 0.0, 0.0, 0.0, 0.0, 0.0, 0.0, 1.6814211808443549E9, 0.0, 2023-04-13 17:26:20.844
10.0, -8765.68362303777, 10060.430772355887, -17306.173420688323, -5316.116549505777, 23107.635749296638, -47294.63723834005, -10272.437068514475, -12612.441195540572, -0.134, 0.976, 0.212, 192.0, 0.0, 0.0, 0.0, 0.0, 0.0, 0.0, 0.0, 0.0, 0.0, 1.681421180844374E9, 0.0, 2023-04-13 17:26:20.844
11.0, -8790.27054193861, 10037.743751733751, -17305.748737543672, -5678.214809681751, 22882.665441353973, -47291.17271794948, -10253.952175849936, -12580.813477136313, -0.134, 0.976, 0.212, 192.0, 0.0, 0.0, 0.0, 0.0, 0.0, 0.0, 0.0, 0.0, 0.0, 1.6814211808443935E9, 0.0, 2023-04-13 17:26:20.844
12.0, -8780.391070889364, 10039.911870945916, -17279.776010486607, -5632.527844015103, 22724.30333188812, -47268.440993838434, -10240.250556498833, -12578.48889571296, -0.134, 0.976, 0.212, 192.0, 0.0, 0.0, 0.0, 0.0, 0.0, 0.0, 0.0, 0.0, 0.0, 1.681421180844413E9, 0.0, 2023-04-13 17:26:20.844
13.0, -8753.390163587352, 10061.481304345287, -17280.22304537571, -5207.2412022639755, 22977.92857622249, -47268.999787449815, -10263.630481199085, -12610.965980406521, -0.134, 0.976, 0.212, 192.0, 0.0, 0.0, 0.0, 0.0, 0.0, 0.0, 0.0, 0.0, 0.0, 1.681421180844432E9, 0.0, 2023-04-13 17:26:20.844
14.0, -8774.512562097618, 10042.996411680748, -17319.629170850418, -5270.071955927844, 23139.084653745253, -47300.09106398714, -10294.677054247506, -12620.823099711311, -0.134, 0.976, 0.212, 192.0, 0.0, 0.0, 0.0, 0.0, 0.0, 0.0, 0.0, 0.0, 0.0, 1.6814211808444512E9, 0.0, 2023-04-13 17:26:20.844
15.0, -8792.706882084238, 10024.667981227396, -17319.271542939132, -5635.433570794293, 22943.797462439237, -47291.75386330532, -10276.818010427716, -12584.121535315697, -0.134, 0.976, 0.212, 192.0, 0.0, 0.0, 0.0, 0.0, 0.0, 0.0, 0.0, 0.0, 0.0, 1.6814211808444705E9, 0.0, 2023-04-13 17:26:20.844
16.0, -8793.35508267344, 10026.612582995009, -17300.719595041228, -5697.660827357868, 22728.88543950146, -47272.151383418015, -10255.740315406361, -12571.87277935419, -0.134, 0.976, 0.212, 192.0, 0.0, 0.0, 0.0, 0.0, 0.0, 0.0, 0.0, 0.0, 0.0, 1.681421180844651E9, 0.0, 2023-04-13 17:26:20.844
17.0, -8759.179265401277, 10057.860321743527, -17290.504847825152, -5275.883409486224, 22920.328130761165, -47274.677130541466, -10263.116391076612, -12612.552954262848, -0.134, 0.976, 0.212, 192.0, 0.0, 0.0, 0.0, 0.0, 0.0, 0.0, 0.0, 0.0, 0.0, 1.6814211808446712E9, 0.0, 2023-04-13 17:26:20.844
18.0, -8769.461067850718, 10052.2723856297, -17323.071339496535, -5234.7114961995485, 23122.67847331506, -47306.88599430156, -10290.162001867533, -12631.97662019451, -0.132, 0.974, 0.222, 192.0, 251.0, 224.0, 30.0, 112.0, 6.0, 240.0, 0.0, 0.0, 0.0, 1.6814211808446908E9, 0.0, 2023-04-13 17:26:20.844
19.0, -8797.55721063104, 10018.968286391293, -17333.71076985726, -5587.712596382213, 22992.32309965171, -47311.24458447035, -10280.03666162928, -12603.724015203003, -0.132, 0.974, 0.222, 192.0, 0.0, 0.0, 0.0, 0.0, 0.0, 0.0, 0.0, 0.0, 0.0, 1.6814211808447113E9, 0.0, 2023-04-13 17:26:20.844
20.0, -8797.55721063104, 10015.593172978542, -17310.084975968002, -5748.287528549138, 22731.612352325006, -47287.104700458614, -10257.12612356259, -12575.560817189315, -0.132, 0.974, 0.222, 192.0, 0.0, 0.0, 0.0, 0.0, 0.0, 0.0, 0.0, 0.0, 0.0, 1.6814211808447423E9, 0.0, 2023-04-13 17:26:20.844
21.0, -8759.223968890186, 10051.735943762773, -17283.799324488562, -5350.9405673671445, 22842.90168796798, -47275.41473810849, -10260.255367786332, -12601.48884075747, -0.132, 0.974, 0.222, 192.0, 0.0, 0.0, 0.0, 0.0, 0.0, 0.0, 0.0, 0.0, 0.0, 1.6814211808447824E9, 0.0, 2023-04-13 17:26:20.844
22.0, -8750.506788552617, 10060.475475844798, -17305.592275332485, -5191.729091611993, 23102.740717260924, -47303.30971518871, -10282.584760497184, -12629.495576559972, -0.132, 0.974, 0.222, 192.0, 0.0, 0.0, 0.0, 0.0, 0.0, 0.0, 0.0, 0.0, 0.0, 1.681421180844809E9, 0.0, 2023-04-13 17:26:20.844
23.0, -8782.313320912519, 10033.899251687439, -17323.540726130097, -5516.835214714434, 23020.173373243022, -47314.55264264973, -10286.541019265775, -12611.770643206912, -0.132, 0.974, 0.222, 192.0, 0.0, 0.0, 0.0, 0.0, 0.0, 0.0, 0.0, 0.0, 0.0, 1.6814211808448284E9, 0.0, 2023-04-13 17:26:20.844
24.0, -8788.258884937632, 10031.239394097256, -17305.10053695447, -5756.177694341862, 22746.431558898876, -47289.07165397068, -10260.612995697618, -12576.477238711983, -0.132, 0.974, 0.222, 192.0, 0.0, 0.0, 0.0, 0.0, 0.0, 0.0, 0.0, 0.0, 0.0, 1.6814211808448477E9, 0.0, 2023-04-13 17:26:20.844
25.0, -8753.010183931612, 10056.921548476404, -17284.246359377667, -5423.963716502633, 22794.286643777687, -47273.760709018796, -10267.474981245397, -12598.20313432254, -0.132, 0.974, 0.222, 192.0, 0.0, 0.0, 0.0, 0.0, 0.0, 0.0, 0.0, 0.0, 0.0, 1.6814211808448665E9, 0.0, 2023-04-13 17:26:20.844
26.0, -8750.283271108065, 10059.51435083322, -17316.321112671034, -5183.905981052635, 23077.013859392868, -47306.260145456814, -10308.021045687325, -12641.498463332471, -0.132, 0.974, 0.222, 192.0, 0.0, 0.0, 0.0, 0.0, 0.0, 0.0, 0.0, 0.0, 0.0, 1.6814211808448856E9, 0.0, 2023-04-13 17:26:20.844
27.0, -8778.066489466011, 10044.069295414603, -17333.599011134986, -5464.3980222222835, 23054.438597493005, -47313.47975891588, -10301.360225839642, -12614.631666497191, -0.132, 0.974, 0.222, 192.0, 0.0, 0.0, 0.0, 0.0, 0.0, 0.0, 0.0, 0.0, 0.0, 1.6814211808449044E9, 0.0, 2023-04-13 17:26:20.844
28.0, -8801.938152544279, 10023.058655626613, -17327.80990932106, -5773.053261405619, 22773.61128015653, -47300.47104364289, -10289.044414644768, -12587.742517917457, -0.134, 0.974, 0.222, 192.0, 251.0, 208.0, 30.0, 112.0, 6.0, 240.0, 0.0, 0.0, 0.0, 1.6814211808449235E9, 0.0, 2023-04-13 17:26:20.844
29.0, -8772.903236496835, 10039.598946523542, -17297.65740605085, -5523.585441539936, 22744.88928853146, -47277.180525920456, -10274.135801093078, -12597.018491866409, -0.134, 0.974, 0.222, 192.0, 0.0, 0.0, 0.0, 0.0, 0.0, 0.0, 0.0, 0.0, 0.0, 1.6814211808449438E9, 0.0, 2023-04-13 17:26:20.844
30.0, -8750.68560250826, 10058.374411866, -17310.107327712456, -5191.013835789423, 23032.086853037697, -47292.35736040561, -10294.207667613944, -12623.818233468322, -0.134, 0.974, 0.222, 192.0, 0.0, 0.0, 0.0, 0.0, 0.0, 0.0, 0.0, 0.0, 0.0, 1.6814211808449628E9, 0.0, 2023-04-13 17:26:20.844
31.0, -8783.766184302114, 10028.356019062521, -17342.226784494735, -5406.395245360762, 23076.879748926134, -47318.46419792941, -10298.499202549363, -12624.578192779803, -0.134, 0.974, 0.222, 192.0, 0.0, 0.0, 0.0, 0.0, 0.0, 0.0, 0.0, 0.0, 0.0, 1.6814211808450549E9, 0.0, 2023-04-13 17:26:20.845
32.0, -8796.618437363915, 10016.151966589925, -17334.33661870201, -5756.177694341862, 22819.65587373446, -47306.55071813473, -10272.593530725662, -12585.954378361033, -0.134, 0.974, 0.222, 192.0, 0.0, 0.0, 0.0, 0.0, 0.0, 0.0, 0.0, 0.0, 0.0, 1.681421180845075E9, 0.0, 2023-04-13 17:26:20.845
33.0, -8769.326957383986, 10040.56007153512, -17300.630188063406, -5608.879698381388, 22707.897151457924, -47279.2592381548, -10255.114466561612, -12578.824171879789, -0.134, 0.974, 0.222, 192.0, 0.0, 0.0, 0.0, 0.0, 0.0, 0.0, 0.0, 0.0, 0.0, 1.6814211808450942E9, 0.0, 2023-04-13 17:26:20.845
34.0, -8756.765277000104, 10054.775781008695, -17315.918781270837, -5217.36654250223, 22987.15984668253, -47297.90059303053, -10294.65470250305, -12625.606373024748, -0.134, 0.974, 0.222, 192.0, 0.0, 0.0, 0.0, 0.0, 0.0, 0.0, 0.0, 0.0, 0.0, 1.6814211808451133E9, 0.0, 2023-04-13 17:26:20.845
35.0, -8777.708861554725, 10047.958498949827, -17346.58537466352, -5357.556683725916, 23088.48030429844, -47324.163892765515, -10322.527327838818, -12632.937745206089, -0.134, 0.974, 0.222, 192.0, 0.0, 0.0, 0.0, 0.0, 0.0, 0.0, 0.0, 0.0, 0.0, 1.6814211808451328E9, 0.0, 2023-04-13 17:26:20.845
36.0, -8796.730196086191, 10028.17720510688, -17333.978990790725, -5713.374103709949, 22859.95606898738, -47304.04732275574, -10273.241731314865, -12586.133192316674, -0.134, 0.974, 0.222, 192.0, 0.0, 0.0, 0.0, 0.0, 0.0, 0.0, 0.0, 0.0, 0.0, 1.6814211808451517E9, 0.0, 2023-04-13 17:26:20.845
37.0, -8784.481440124684, 10032.55814702012, -17301.636016563894, -5668.000062465676, 22705.39375607893, -47274.83359275265, -10253.281623516277, -12577.684232912568, -0.134, 0.974, 0.222, 192.0, 0.0, 0.0, 0.0, 0.0, 0.0, 0.0, 0.0, 0.0, 0.0, 1.6814211808451707E9, 0.0, 2023-04-13 17:26:20.845
38.0, -8759.626300290383, 10051.98181295178, -17302.57478983102, -5246.312051571853, 22950.83826194266, -47282.34377888963, -10279.120240106611, -12617.246820598462, -0.134, 0.97, 0.232, 192.0, 251.0, 208.0, 30.0, 80.0, 7.0, 64.0, 0.0, 0.0, 0.0, 1.6814211808451905E9, 0.0, 2023-04-13 17:26:20.845
39.0, -8771.852704507435, 10045.3209931041, -17333.934287301814, -5298.615133597271, 23116.822316267768, -47313.01037228231, -10302.611923529139, -12633.094207417274, -0.134, 0.97, 0.232, 192.0, 0.0, 0.0, 0.0, 0.0, 0.0, 0.0, 0.0, 0.0, 0.0, 1.681421180845211E9, 0.0, 2023-04-13 17:26:20.845
40.0, -8803.681588611793, 10020.421149780888, -17343.09850252849, -5673.565646835047, 22926.877191886568, -47313.45740717142, -10296.152269381557, -12603.500497758449, -0.134, 0.97, 0.232, 192.0, 0.0, 0.0, 0.0, 0.0, 0.0, 0.0, 0.0, 0.0, 0.0, 1.68142118084523E9, 0.0, 2023-04-13 17:26:20.845
41.0, -8798.987722276179, 10021.404626536922, -17318.444528394288, -5752.444953017825, 22693.793200706627, -47286.94823824742, -10263.831646899182, -12577.639529423659, -0.134, 0.97, 0.232, 192.0, 0.0, 0.0, 0.0, 0.0, 0.0, 0.0, 0.0, 0.0, 0.0, 1.6814211808452492E9, 0.0, 2023-04-13 17:26:20.845
42.0, -8762.35321311393, 10056.049830442647, -17306.307531155056, -5323.134997264743, 22881.078467497646, -47281.226191666865, -10278.472039517408, -12607.344997804761, -0.134, 0.97, 0.232, 192.0, 0.0, 0.0, 0.0, 0.0, 0.0, 0.0, 0.0, 0.0, 0.0, 1.681421180845268E9, 0.0, 2023-04-13 17:26:20.845
43.0, -8767.896445738847, 10050.618356540008, -17341.62328739444, -5265.020461680944, 23102.628958538648, -47318.08421827367, -10312.08906317819, -12633.697704517568, -0.134, 0.97, 0.232, 192.0, 0.0, 0.0, 0.0, 0.0, 0.0, 0.0, 0.0, 0.0, 0.0, 1.6814211808453057E9, 0.0, 2023-04-13 17:26:20.845
44.0, -8795.769071074614, 10018.141271846447, -17356.978935835235, -5625.7776171896, 22973.435875586973, -47331.09293354666, -10310.144461410579, -12616.665675242624, -0.134, 0.97, 0.232, 192.0, 0.0, 0.0, 0.0, 0.0, 0.0, 0.0, 0.0, 0.0, 0.0, 1.681421180845325E9, 0.0, 2023-04-13 17:26:20.845
45.0, -8797.087823997477, 10016.487242756753, -17329.28512445511, -5800.881183252476, 22701.281035099153, -47304.91904078949, -10281.623635485606, -12587.83192489528, -0.134, 0.97, 0.232, 192.0, 0.0, 0.0, 0.0, 0.0, 0.0, 0.0, 0.0, 0.0, 0.0, 1.681421180845344E9, 0.0, 2023-04-13 17:26:20.845
46.0, -8763.314338125509, 10052.026516440692, -17306.03931022159, -5394.280599865985, 22839.95125769988, -47287.28351441426, -10280.953083151948, -12610.161317606131, -0.134, 0.97, 0.232, 192.0, 0.0, 0.0, 0.0, 0.0, 0.0, 0.0, 0.0, 0.0, 0.0, 1.681421180845363E9, 0.0, 2023-04-13 17:26:20.845
47.0, -8755.580634543972, 10065.75048753625, -17328.27929595462, -5237.2372433229975, 23090.871940955156, -47313.21153798241, -10313.877202734615, -12636.670486530124, -0.134, 0.97, 0.232, 192.0, 0.0, 0.0, 0.0, 0.0, 0.0, 0.0, 0.0, 0.0, 0.0, 1.6814211808454473E9, 0.0, 2023-04-13 17:26:20.845
48.0, -8794.226800707198, 10025.070312627591, -17351.748627632693, -5553.737944810146, 23020.799222087768, -47328.79070386776, -10317.98992371439, -12627.193346881075, -0.14, 0.972, 0.23, 192.0, 251.0, 160.0, 30.0, 96.0, 7.0, 48.0, 0.0, 0.0, 0.0, 1.6814211808454669E9, 0.0, 2023-04-13 17:26:20.845
49.0, -8806.900239813356, 10010.564030476098, -17337.443511181296, -5816.4156456489145, 22747.795015310647, -47310.50697690332, -10289.536153022786, -12591.005872607931, -0.14, 0.972, 0.23, 192.0, 0.0, 0.0, 0.0, 0.0, 0.0, 0.0, 0.0, 0.0, 0.0, 1.681421180845487E9, 0.0, 2023-04-13 17:26:20.845
50.0, -8775.339576642464, 10040.023629668192, -17313.28127542511, -5493.768214436557, 22779.467437203817, -47292.7149883169, -10296.867525204127, -12610.630704239691, -0.14, 0.972, 0.23, 192.0, 0.0, 0.0, 0.0, 0.0, 0.0, 0.0, 0.0, 0.0, 0.0, 1.681421180845506E9, 0.0, 2023-04-13 17:26:20.845
51.0, -8768.231721905675, 10042.012934924715, -17337.801139092582, -5236.2984700558745, 23063.51340574186, -47322.39810495354, -10320.04628420428, -12648.44985585807, -0.14, 0.972, 0.23, 192.0, 0.0, 0.0, 0.0, 0.0, 0.0, 0.0, 0.0, 0.0, 0.0, 1.6814211808455253E9, 0.0, 2023-04-13 17:26:20.845
52.0, -8791.209315205731, 10030.41237955241, -17358.118874802458, -5510.174394866753, 23051.398760247084, -47340.45831447343, -10322.393217372086, -12636.69283827458, -0.14, 0.972, 0.23, 192.0, 0.0, 0.0, 0.0, 0.0, 0.0, 0.0, 0.0, 0.0, 0.0, 1.681421180845544E9, 0.0, 2023-04-13 17:26:20.845
53.0, -8795.634960607882, 10023.4162835379, -17338.42698793733, -5819.299020683649, 22773.99125981227, -47317.95010780694, -10296.353435081654, -12595.766794176912, -0.14, 0.972, 0.23, 192.0, 0.0, 0.0, 0.0, 0.0, 0.0, 0.0, 0.0, 0.0, 0.0, 1.6814211808455632E9, 0.0, 2023-04-13 17:26:20.845
54.0, -8762.30850962502, 10036.290888344156, -17305.771089288126, -5574.43566017576, 22738.340227406054, -47289.85396502662, -10280.327234307199, -12600.550067490349, -0.14, 0.972, 0.23, 192.0, 0.0, 0.0, 0.0, 0.0, 0.0, 0.0, 0.0, 0.0, 0.0, 1.6814211808455822E9, 0.0, 2023-04-13 17:26:20.845
55.0, -8746.192901872742, 10047.84674022755, -17320.187964461802, -5232.252804309464, 23017.446460419473, -47303.35441867762, -10299.70619674995, -12632.557765550348, -0.14, 0.972, 0.23, 192.0, 0.0, 0.0, 0.0, 0.0, 0.0, 0.0, 0.0, 0.0, 0.0, 1.681421180845601E9, 0.0, 2023-04-13 17:26:20.845
56.0, -8779.87698076689, 10020.756425947719, -17351.77097937715, -5435.296050941473, 23063.759274930868, -47323.381581709575, -10317.252316147365, -12635.150567907163, -0.14, 0.972, 0.23, 192.0, 0.0, 0.0, 0.0, 0.0, 0.0, 0.0, 0.0, 0.0, 0.0, 1.6814211808456202E9, 0.0, 2023-04-13 17:26:20.845
57.0, -8802.295780455564, 10004.260838539702, -17344.77488336264, -5781.457517320814, 22812.995053886778, -47306.79658732374, -10298.432147315998, -12594.693910443058, -0.14, 0.972, 0.23, 192.0, 0.0, 0.0, 0.0, 0.0, 0.0, 0.0, 0.0, 0.0, 0.0, 1.6814211808456395E9, 0.0, 2023-04-13 17:26:20.845
58.0, -8777.150067943343, 10031.865242942005, -17312.498964369173, -5653.40437333636, 22688.048802381614, -47276.28645614225, -10288.217400099922, -12583.29452077085, -0.14200000000000002, 0.968, 0.23, 192.0, 251.0, 144.0, 30.0, 64.0, 7.0, 48.0, 0.0, 0.0, 0.0, 1.6814211808456583E9, 0.0, 2023-04-13 17:26:20.845
59.0, -8756.228835133175, 10048.964327450316, -17319.00332200567, -5252.011746407956, 22958.63902075756, -47288.17758419247, -10300.935542694991, -12624.086454401786, -0.14200000000000002, 0.968, 0.23, 192.0, 0.0, 0.0, 0.0, 0.0, 0.0, 0.0, 0.0, 0.0, 0.0, 1.6814211808456855E9, 0.0, 2023-04-13 17:26:20.845
60.0, -8777.351233643441, 10029.875937685483, -17351.77097937715, -5378.433213047173, 23076.455065781483, -47315.11143626111, -10319.956877226457, -12629.093245159775, -0.14200000000000002, 0.968, 0.23, 192.0, 0.0, 0.0, 0.0, 0.0, 0.0, 0.0, 0.0, 0.0, 0.0, 1.6814211808457088E9, 0.0, 2023-04-13 17:26:20.845
61.0, -8801.804042077547, 10006.98775136325, -17351.927441588337, -5752.80258092911, 22841.493528067294, -47311.713971103905, -10307.126975909112, -12605.467451270515, -0.14200000000000002, 0.968, 0.23, 192.0, 0.0, 0.0, 0.0, 0.0, 0.0, 0.0, 0.0, 0.0, 0.0, 1.6814211808457277E9, 0.0, 2023-04-13 17:26:20.845
62.0, -8794.562076874028, 10008.530021730665, -17331.252077967176, -5739.615051700479, 22659.1479968009, -47295.73247381836, -10294.408833314043, -12602.181744835585, -0.14200000000000002, 0.968, 0.23, 192.0, 0.0, 0.0, 0.0, 0.0, 0.0, 0.0, 0.0, 0.0, 0.0, 1.6814211808457704E9, 0.0, 2023-04-13 17:26:20.845
63.0, -8761.012108446612, 10042.147045391446, -17323.294856941087, -5307.712293590581, 22883.0007175208, -47292.98320925036, -10304.109490407645, -12632.468358572527, -0.14200000000000002, 0.968, 0.23, 192.0, 0.0, 0.0, 0.0, 0.0, 0.0, 0.0, 0.0, 0.0, 0.0, 1.68142118084579E9, 0.0, 2023-04-13 17:26:20.845
64.0, -8771.45037310724, 10044.739847748262, -17355.369610234455, -5322.307982719896, 23065.793283676303, -47317.01133453981, -10332.742075054894, -12645.87940524571, -0.14200000000000002, 0.968, 0.23, 192.0, 0.0, 0.0, 0.0, 0.0, 0.0, 0.0, 0.0, 0.0, 0.0, 1.681421180845814E9, 0.0, 2023-04-13 17:26:20.845
65.0, -8800.820565321514, 10025.673809727885, -17358.565909691562, -5690.620027854447, 22885.1017814996, -47309.903479803026, -10313.47487133442, -12607.143832104664, -0.14200000000000002, 0.968, 0.23, 192.0, 0.0, 0.0, 0.0, 0.0, 0.0, 0.0, 0.0, 0.0, 0.0, 1.6814211808458333E9, 0.0, 2023-04-13 17:26:20.845
66.0, -8795.16557397432, 10024.600925994031, -17328.435758165808, -5781.166944642895, 22655.079979310034, -47280.801508522214, -10278.136763350578, -12586.647282439148, -0.14200000000000002, 0.968, 0.23, 192.0, 0.0, 0.0, 0.0, 0.0, 0.0, 0.0, 0.0, 0.0, 0.0, 1.6814211808458529E9, 0.0, 2023-04-13 17:26:20.845
67.0, -8760.743887513148, 10051.534778062676, -17315.069414981535, -5360.082430849366, 22842.1417286565, -47277.44874685392, -10290.832554201193, -12622.45477705655, -0.14200000000000002, 0.968, 0.23, 192.0, 0.0, 0.0, 0.0, 0.0, 0.0, 0.0, 0.0, 0.0, 0.0, 1.681421180845872E9, 0.0, 2023-04-13 17:26:20.845
68.0, -8762.822599747491, 10049.41136233942, -17347.68061014183, -5289.473270115051, 23071.448275023497, -47310.395218181045, -10324.069598206235, -12649.120408191731, -0.14, 0.968, 0.232, 192.0, 251.0, 160.0, 30.0, 64.0, 7.0, 64.0, 0.0, 0.0, 0.0, 1.6814211808458912E9, 0.0, 2023-04-13 17:26:20.845
69.0, -8796.014940263622, 10018.588306735553, -17358.67766841384, -5644.731896487701, 22936.667255957993, -47314.97732579438, -10318.101682436667, -12620.711340989035, -0.14, 0.968, 0.232, 192.0, 0.0, 0.0, 0.0, 0.0, 0.0, 0.0, 0.0, 0.0, 0.0, 1.6814211808459113E9, 0.0, 2023-04-13 17:26:20.845
70.0, -8797.512507142128, 10012.530983988165, -17337.37645594793, -5822.137692229473, 22681.92442440086, -47289.8092615377, -10301.360225839642, -12594.448041254049, -0.14, 0.968, 0.232, 192.0, 0.0, 0.0, 0.0, 0.0, 0.0, 0.0, 0.0, 0.0, 0.0, 1.68142118084593E9, 0.0, 2023-04-13 17:26:20.845
71.0, -8758.508713067617, 10035.955612177326, -17320.500888884173, -5445.354335946362, 22790.64330943147, -47282.008502722805, -10308.043397431778, -12624.801710224356, -0.14, 0.968, 0.232, 192.0, 0.0, 0.0, 0.0, 0.0, 0.0, 0.0, 0.0, 0.0, 0.0, 1.6814211808459492E9, 0.0, 2023-04-13 17:26:20.845
72.0, -8753.367811842896, 10041.94587969135, -17345.870118840947, -5263.187618635609, 23061.94878362999, -47300.962782020906, -10323.644915061584, -12642.861919744244, -0.14, 0.968, 0.232, 192.0, 0.0, 0.0, 0.0, 0.0, 0.0, 0.0, 0.0, 0.0, 0.0, 1.681421180845968E9, 0.0, 2023-04-13 17:26:20.845
73.0, -8785.621379091905, 10018.40949277991, -17364.600880694496, -5571.418174674293, 23013.378442928606, -47307.98122977987, -10319.845118504181, -12625.315800346829, -0.14, 0.968, 0.232, 192.0, 0.0, 0.0, 0.0, 0.0, 0.0, 0.0, 0.0, 0.0, 0.0, 1.6814211808459878E9, 0.0, 2023-04-13 17:26:20.845
74.0, -8798.0265972646, 10007.859469397006, -17353.536767189118, -5842.231910494794, 22735.233334926765, -47291.507994116306, -10299.437975816487, -12597.219657566508, -0.14, 0.968, 0.232, 192.0, 0.0, 0.0, 0.0, 0.0, 0.0, 0.0, 0.0, 0.0, 0.0, 1.681421180846007E9, 0.0, 2023-04-13 17:26:20.846
75.0, -8772.322091140997, 10028.668943484896, -17327.67579885433, -5525.395932840816, 22754.299372947142, -47265.73643275934, -10297.158097882044, -12605.266285570418, -0.14, 0.968, 0.232, 192.0, 0.0, 0.0, 0.0, 0.0, 0.0, 0.0, 0.0, 0.0, 0.0, 1.6814211808460264E9, 0.0, 2023-04-13 17:26:20.846
76.0, -8757.793457245047, 10043.935184947872, -17343.791406606604, -5247.720211472537, 23035.529021683815, -47281.80733702271, -10321.856775505159, -12631.551937049859, -0.14, 0.968, 0.232, 192.0, 0.0, 0.0, 0.0, 0.0, 0.0, 0.0, 0.0, 0.0, 0.0, 1.6814211808460455E9, 0.0, 2023-04-13 17:26:20.846
77.0, -8790.650521594349, 10017.448367768333, -17370.68055518634, -5513.4153978127715, 23026.565972157237, -47303.48852914436, -10329.456368619964, -12625.695780002568, -0.14, 0.968, 0.232, 192.0, 0.0, 0.0, 0.0, 0.0, 0.0, 0.0, 0.0, 0.0, 0.0, 1.6814211808460653E9, 0.0, 2023-04-13 17:26:20.846
78.0, -8813.561059661039, 9996.750652402718, -17356.10721780148, -5837.269823225716, 22743.63759084196, -47287.43997662544, -10304.020083429825, -12589.597712707247, -0.14, 0.968, 0.232, 192.0, 251.0, 160.0, 30.0, 64.0, 7.0, 64.0, 0.0, 0.0, 0.0, 1.6814211808461037E9, 0.0, 2023-04-13 17:26:20.846
79.0, -8785.911951769824, 10026.724341717285, -17322.981932518713, -5608.678532681291, 22697.21301760829, -47264.64119728103, -10288.820897200216, -12595.364462776717, -0.14, 0.968, 0.232, 192.0, 0.0, 0.0, 0.0, 0.0, 0.0, 0.0, 0.0, 0.0, 0.0, 1.6814211808461237E9, 0.0, 2023-04-13 17:26:20.846
80.0, -8755.088896165955, 10051.288908873667, -17332.459072167763, -5256.191522621099, 22976.967451210912, -47283.193145178935, -10326.908269752059, -12638.860957486744, -0.14, 0.968, 0.232, 192.0, 0.0, 0.0, 0.0, 0.0, 0.0, 0.0, 0.0, 0.0, 0.0, 1.6814211808461428E9, 0.0, 2023-04-13 17:26:20.846
81.0, -8780.16755344481, 10028.735998718263, -17363.43858998282, -5446.158998746753, 23036.400739717574, -47307.48949140185, -10341.034572247812, -12640.917317976633, -0.14, 0.968, 0.232, 192.0, 0.0, 0.0, 0.0, 0.0, 0.0, 0.0, 0.0, 0.0, 0.0, 1.6814211808461747E9, 0.0, 2023-04-13 17:26:20.846
82.0, -8804.955638045745, 10007.635951952452, -17359.52703470314, -5799.070691951596, 22796.253597289753, -47292.98320925036, -10305.495298563874, -12602.025282624398, -0.14, 0.968, 0.232, 192.0, 0.0, 0.0, 0.0, 0.0, 0.0, 0.0, 0.0, 0.0, 0.0, 1.681421180846194E9, 0.0, 2023-04-13 17:26:20.846
83.0, -8787.45422213724, 10019.594135236042, -17332.3920169344, -5693.905734289377, 22663.01484859167, -47266.608150793094, -10295.571124025719, -12602.069986113309, -0.14, 0.968, 0.232, 192.0, 0.0, 0.0, 0.0, 0.0, 0.0, 0.0, 0.0, 0.0, 0.0, 1.6814211808462129E9, 0.0, 2023-04-13 17:26:20.846
84.0, -8753.054887420521, 10054.641670541963, -17329.173365732833, -5282.410118867174, 22914.67313941397, -47261.89193271303, -10303.394234585076, -12622.901811945656, -0.14, 0.968, 0.232, 192.0, 0.0, 0.0, 0.0, 0.0, 0.0, 0.0, 0.0, 0.0, 0.0, 1.6814211808462324E9, 0.0, 2023-04-13 17:26:20.846
85.0, -8773.037346963567, 10041.811769224616, -17363.05861032708, -5384.557591027927, 23042.122786298132, -47284.06486321269, -10318.883993492604, -12626.947477692065, -0.14, 0.968, 0.232, 192.0, 0.0, 0.0, 0.0, 0.0, 0.0, 0.0, 0.0, 0.0, 0.0, 1.681421180846251E9, 0.0, 2023-04-13 17:26:20.846
86.0, -8799.077129254, 10011.994542121238, -17368.311270274076, -5764.269025834683, 22819.499411523273, -47279.57216257718, -10312.647856789572, -12593.218695309008, -0.14, 0.968, 0.232, 192.0, 0.0, 0.0, 0.0, 0.0, 0.0, 0.0, 0.0, 0.0, 0.0, 1.6814211808462737E9, 0.0, 2023-04-13 17:26:20.846
87.0, -8786.98483550368, 10017.962457890804, -17342.42795019483, -5762.480886278258, 22633.2423249772, -47255.32051984317, -10297.94040893798, -12587.161372561619, -0.14, 0.968, 0.232, 192.0, 0.0, 0.0, 0.0, 0.0, 0.0, 0.0, 0.0, 0.0, 0.0, 1.681421180846293E9, 0.0, 2023-04-13 17:26:20.846
88.0, -8752.071410664488, 10043.443446569854, -17333.263734968154, -5333.595613669827, 22853.786987517713, -47258.87444721156, -10311.217345144432, -12630.300239360362, -0.138, 0.96, 0.244, 192.0, 251.0, 176.0, 30.0, 0.0, 7.0, 160.0, 0.0, 0.0, 0.0, 1.6814211808463123E9, 0.0, 2023-04-13 17:26:20.846
89.0, -8763.82842824798, 10037.229661611278, -17365.2490812837, -5345.129113808765, 23049.252992779377, -47293.5643546062, -10336.743037312393, -12649.120408191731, -0.138, 0.96, 0.244, 192.0, 0.0, 0.0, 0.0, 0.0, 0.0, 0.0, 0.0, 0.0, 0.0, 1.681421180846332E9, 0.0, 2023-04-13 17:26:20.846
90.0, -8792.50571638414, 10017.113091601503, -17370.412334252876, -5707.316780962561, 22894.400107193007, -47290.72568306037, -10326.751807540872, -12614.341093819272, -0.138, 0.96, 0.244, 192.0, 0.0, 0.0, 0.0, 0.0, 0.0, 0.0, 0.0, 0.0, 0.0, 1.681421180846354E9, 0.0, 2023-04-13 17:26:20.846
91.0, -8787.968312259713, 10012.64274271044, -17346.831243852528, -5817.220308449306, 22657.024581077647, -47267.815144993685, -10300.622618272617, -12595.9232563881, -0.138, 0.96, 0.244, 192.0, 0.0, 0.0, 0.0, 0.0, 0.0, 0.0, 0.0, 0.0, 0.0, 1.681421180846373E9, 0.0, 2023-04-13 17:26:20.846
92.0, -8749.299794352031, 10046.058600671126, -17329.642752366395, -5396.113442911321, 22815.856077177057, -47254.69467099842, -10305.85292647516, -12618.20794561004, -0.138, 0.96, 0.244, 192.0, 0.0, 0.0, 0.0, 0.0, 0.0, 0.0, 0.0, 0.0, 0.0, 1.681421180846392E9, 0.0, 2023-04-13 17:26:20.846
93.0, -8750.05975366351, 10041.498844802243, -17360.53286320363, -5307.019389512467, 23036.624257162126, -47285.07069171318, -10338.419418146541, -12645.36531512324, -0.138, 0.96, 0.244, 192.0, 0.0, 0.0, 0.0, 0.0, 0.0, 0.0, 0.0, 0.0, 0.0, 1.68142118084643E9, 0.0, 2023-04-13 17:26:20.846
94.0, -8784.436736635773, 10010.519326987187, -17379.576549479552, -5647.682326755801, 22939.885907159558, -47297.43120639696, -10336.05013323428, -12630.769625993924, -0.138, 0.96, 0.244, 192.0, 0.0, 0.0, 0.0, 0.0, 0.0, 0.0, 0.0, 0.0, 0.0, 1.6814211808464496E9, 0.0, 2023-04-13 17:26:20.846
95.0, -8782.73800405717, 10012.173356076879, -17356.598956179496, -5844.221215751317, 22680.73978194473, -47268.440993838434, -10298.499202549363, -12593.553971475838, -0.138, 0.96, 0.244, 192.0, 0.0, 0.0, 0.0, 0.0, 0.0, 0.0, 0.0, 0.0, 0.0, 1.6814211808464684E9, 0.0, 2023-04-13 17:26:20.846
96.0, -8754.552454299028, 10032.64755399794, -17339.097540270992, -5466.722603645636, 22786.79880938516, -47254.940540187425, -10305.651760775061, -12613.692893230069, -0.138, 0.96, 0.244, 192.0, 0.0, 0.0, 0.0, 0.0, 0.0, 0.0, 0.0, 0.0, 0.0, 1.6814211808464873E9, 0.0, 2023-04-13 17:26:20.846
97.0, -8746.841102461947, 10046.572690793597, -17359.459979469775, -5284.689996801615, 23040.55816418626, -47277.82872650966, -10340.609889103162, -12643.64423080018, -0.138, 0.96, 0.244, 192.0, 0.0, 0.0, 0.0, 0.0, 0.0, 0.0, 0.0, 0.0, 0.0, 1.6814211808465064E9, 0.0, 2023-04-13 17:26:20.846
98.0, -8773.149105685843, 10028.400722551432, -17375.709697688784, -5590.931247583777, 22974.419352343008, -47287.64114232554, -10339.157025713566, -12630.680219016102, -0.132, 0.964, 0.24, 192.0, 251.0, 224.0, 30.0, 32.0, 7.0, 128.0, 0.0, 0.0, 0.0, 1.6814211808465252E9, 0.0, 2023-04-13 17:26:20.846
99.0, -8779.631111577883, 10024.489167271753, -17357.71654340226, -5862.370832249026, 22696.944796674827, -47268.88802872754, -10320.04628420428, -12604.416919281117, -0.132, 0.964, 0.24, 192.0, 0.0, 0.0, 0.0, 0.0, 0.0, 0.0, 0.0, 0.0, 0.0, 1.6814211808465464E9, 0.0, 2023-04-13 17:26:20.846
100.0, -8745.231776861165, 10051.98181295178, -17327.51933664314, -5545.847779017423, 22730.919448246892, -47245.53045577174, -10312.290228878288, -12613.73759671898, -0.132, 0.964, 0.24, 192.0, 0.0, 0.0, 0.0, 0.0, 0.0, 0.0, 0.0, 0.0, 0.0, 1.6814211808465655E9, 0.0, 2023-04-13 17:26:20.846
101.0, -8737.721590724183, 10056.94390022086, -17352.866214855458, -5266.272159370442, 23032.310370482253, -47275.705310786405, -10340.699296080982, -12656.250614672974, -0.132, 0.964, 0.24, 192.0, 0.0, 0.0, 0.0, 0.0, 0.0, 0.0, 0.0, 0.0, 0.0, 1.6814211808465843E9, 0.0, 2023-04-13 17:26:20.846
102.0, -8769.081088194978, 10032.446388297843, -17376.782581422638, -5533.107284677897, 23026.744786112882, -47295.37484590708, -10356.546682899796, -12648.338097135795, -0.132, 0.964, 0.24, 192.0, 0.0, 0.0, 0.0, 0.0, 0.0, 0.0, 0.0, 0.0, 0.0, 1.6814211808466036E9, 0.0, 2023-04-13 17:26:20.846
103.0, -8791.991626261668, 10018.297734057634, -17367.57366270705, -5859.174532791917, 22749.002009511234, -47278.27576139877, -10333.56908959974, -12611.480070528993, -0.132, 0.964, 0.24, 192.0, 0.0, 0.0, 0.0, 0.0, 0.0, 0.0, 0.0, 0.0, 0.0, 1.6814211808466225E9, 0.0, 2023-04-13 17:26:20.846
104.0, -8759.782762501569, 10039.867167457005, -17333.397845434887, -5648.576396534014, 22689.054630882103, -47246.93861567243, -10317.699351036472, -12608.887268172177, -0.132, 0.964, 0.24, 192.0, 0.0, 0.0, 0.0, 0.0, 0.0, 0.0, 0.0, 0.0, 0.0, 1.6814211808466415E9, 0.0, 2023-04-13 17:26:20.846
105.0, -8741.990773915146, 10054.708725775328, -17348.28410724212, -5285.114679946266, 22978.710887278427, -47265.40115659251, -10347.04719150629, -12650.8861960037, -0.132, 0.964, 0.24, 192.0, 0.0, 0.0, 0.0, 0.0, 0.0, 0.0, 0.0, 0.0, 0.0, 1.6814211808466604E9, 0.0, 2023-04-13 17:26:20.846
106.0, -8760.87799797988, 10041.588251780064, -17373.206302309787, -5467.594321679392, 23053.94685911499, -47285.54007834674, -10351.338726441709, -12644.091265689287, -0.132, 0.964, 0.24, 192.0, 0.0, 0.0, 0.0, 0.0, 0.0, 0.0, 0.0, 0.0, 0.0, 1.6814211808466792E9, 0.0, 2023-04-13 17:26:20.846
107.0, -8780.100498211445, 10018.74476894674, -17368.78065690764, -5830.921927800408, 22800.56748396963, -47275.10181368612, -10324.248412161876, -12603.947532647555, -0.132, 0.964, 0.24, 192.0, 0.0, 0.0, 0.0, 0.0, 0.0, 0.0, 0.0, 0.0, 0.0, 1.6814211808467011E9, 0.0, 2023-04-13 17:26:20.846
108.0, -8758.329899111975, 10032.200519108836, -17331.699112856284, -5725.019362571164, 22664.15478755889, -47242.401211548, -10301.963722939936, -12589.910637129622, -0.132, 0.966, 0.244, 192.0, 251.0, 224.0, 30.0, 48.0, 7.0, 160.0, 0.0, 0.0, 0.0, 1.6814211808467295E9, 0.0, 2023-04-13 17:26:20.846
109.0, -8734.25707033361, 10059.268481644212, -17336.594144891995, -5309.969819780567, 22940.55645949322, -47256.03577566574, -10331.289211665298, -12638.995067953476, -0.132, 0.966, 0.244, 192.0, 0.0, 0.0, 0.0, 0.0, 0.0, 0.0, 0.0, 0.0, 0.0, 1.681421180846794E9, 0.0, 2023-04-13 17:26:20.846
110.0, -8749.34449784094, 10062.174208423401, -17362.81274113807, -5406.842280249868, 23076.119789614655, -47278.32046488768, -10345.52727288333, -12636.40226559666, -0.132, 0.966, 0.244, 192.0, 0.0, 0.0, 0.0, 0.0, 0.0, 0.0, 0.0, 0.0, 0.0, 1.681421180846814E9, 0.0, 2023-04-13 17:26:20.846
111.0, -8775.428983620284, 10037.341420333556, -17364.377363249943, -5773.3885375724485, 22874.060019738678, -47271.54788631772, -10328.115263952644, -12605.579209992793, -0.132, 0.966, 0.244, 192.0, 0.0, 0.0, 0.0, 0.0, 0.0, 0.0, 0.0, 0.0, 0.0, 1.6814211808468332E9, 0.0, 2023-04-13 17:26:20.846
112.0, -8754.038364176557, 10043.532853547675, -17326.558211631564, -5781.099889409529, 22682.01383137868, -47234.10871435508, -10303.03660667379, -12579.830000380278, -0.132, 0.966, 0.244, 192.0, 0.0, 0.0, 0.0, 0.0, 0.0, 0.0, 0.0, 0.0, 0.0, 1.681421180846852E9, 0.0, 2023-04-13 17:26:20.846
113.0, -8720.913078893791, 10064.208217168834, -17317.550458616075, -5343.050401574422, 22912.81794462418, -47233.05818236568, -10315.732397524405, -12608.149660605153, -0.132, 0.966, 0.244, 192.0, 0.0, 0.0, 0.0, 0.0, 0.0, 0.0, 0.0, 0.0, 0.0, 1.681421180846871E9, 0.0, 2023-04-13 17:26:20.846
114.0, -8725.383427784853, 10064.118810191014, -17345.110159529468, -5344.43620973065, 23100.103211415197, -47260.08144141215, -10334.463159377952, -12622.410073567638, -0.132, 0.966, 0.244, 192.0, 0.0, 0.0, 0.0, 0.0, 0.0, 0.0, 0.0, 0.0, 0.0, 1.68142118084689E9, 0.0, 2023-04-13 17:26:20.846
115.0, -8754.373640343385, 10040.828292468583, -17355.213148023267, -5705.260420472672, 22938.321285047685, -47260.59553153462, -10323.175528428023, -12595.409166265628, -0.132, 0.966, 0.244, 192.0, 0.0, 0.0, 0.0, 0.0, 0.0, 0.0, 0.0, 0.0, 0.0, 1.6814211808469088E9, 0.0, 2023-04-13 17:26:20.846
116.0, -8757.212311889209, 10031.306449330623, -17336.616496636452, -5828.127959743495, 22698.665880997884, -47242.580025503645, -10307.819879987226, -12584.948549860545, -0.132, 0.966, 0.244, 192.0, 0.0, 0.0, 0.0, 0.0, 0.0, 0.0, 0.0, 0.0, 0.0, 1.681421180846928E9, 0.0, 2023-04-13 17:26:20.846
117.0, -8724.534061495551, 10055.379278108989, -17321.462013895754, -5419.135739700287, 22842.43230133442, -47236.2991853117, -10315.464176590942, -12617.425634554105, -0.132, 0.966, 0.244, 192.0, 0.0, 0.0, 0.0, 0.0, 0.0, 0.0, 0.0, 0.0, 0.0, 1.6814211808469467E9, 0.0, 2023-04-13 17:26:20.846
118.0, -8731.910137165802, 10052.451199585343, -17353.00032532219, -5305.767691822969, 23084.769914718858, -47265.982301948345, -10350.33289794122, -12642.50429183296, -0.13, 0.964, 0.24, 192.0, 251.0, 240.0, 30.0, 32.0, 7.0, 128.0, 0.0, 0.0, 0.0, 1.681421180846966E9, 0.0, 2023-04-13 17:26:20.846
119.0, -8764.767201515104, 10027.059617884115, -17367.305441773588, -5649.7833907346, 22982.533035580283, -47274.56537181919, -10338.307659424265, -12623.751178234957, -0.13, 0.964, 0.24, 192.0, 0.0, 0.0, 0.0, 0.0, 0.0, 0.0, 0.0, 0.0, 0.0, 1.6814211808469996E9, 0.0, 2023-04-13 17:26:20.846
120.0, -8764.051945692534, 10030.188862107858, -17347.166520019357, -5858.079297313607, 22719.29654113013, -47254.69467099842, -10327.601173830173, -12598.627817467192, -0.13, 0.964, 0.24, 192.0, 0.0, 0.0, 0.0, 0.0, 0.0, 0.0, 0.0, 0.0, 0.0, 1.6814211808470187E9, 0.0, 2023-04-13 17:26:20.847
121.0, -8722.0083143721, 10066.286929403179, -17321.216144706745, -5492.672978958247, 22801.41685025893, -47238.91433941297, -10333.077351221724, -12618.140890376675, -0.13, 0.964, 0.24, 192.0, 0.0, 0.0, 0.0, 0.0, 0.0, 0.0, 0.0, 0.0, 0.0, 1.681421180847038E9, 0.0, 2023-04-13 17:26:20.847
122.0, -8712.911154378791, 10088.99630176977, -17339.61163039346, -5285.6064183242825, 23065.368600531652, -47261.44489782392, -10347.158950228566, -12639.576213309314, -0.13, 0.964, 0.24, 192.0, 0.0, 0.0, 0.0, 0.0, 0.0, 0.0, 0.0, 0.0, 0.0, 1.6814211813252196E9, 0.0, 2023-04-13 17:26:21.325
123.0, -8754.016012432101, 10052.428847840887, -17363.460941727273, -5583.935151569266, 23020.0839662652, -47275.92882823096, -10340.721647825438, -12622.521832289915, -0.13, 0.964, 0.24, 192.0, 0.0, 0.0, 0.0, 0.0, 0.0, 0.0, 0.0, 0.0, 0.0, 1.6814211813254633E9, 0.0, 2023-04-13 17:26:21.325
124.0, -8770.243378906653, 10028.735998718263, -17353.916746844858, -5866.796477651176, 22752.93591653537, -47263.81418273618, -10324.986019728902, -12593.241047053463, -0.13, 0.964, 0.24, 192.0, 0.0, 0.0, 0.0, 0.0, 0.0, 0.0, 0.0, 0.0, 0.0, 1.68142118132563E9, 0.0, 2023-04-13 17:26:21.325
125.0, -8728.557375497505, 10056.586272309574, -17317.930438271815, -5572.781631086067, 22767.1739777534, -47235.82979867814, -10306.590534042185, -12597.577285477792, -0.13, 0.964, 0.24, 192.0, 0.0, 0.0, 0.0, 0.0, 0.0, 0.0, 0.0, 0.0, 0.0, 1.6814211813256617E9, 0.0, 2023-04-13 17:26:21.325
126.0, -8709.334875265942, 10077.239284186278, -17329.821566322036, -5278.699729287592, 23042.726283398424, -47255.2534646098, -10333.323220410732, -12628.489748059483, -0.13, 0.964, 0.24, 192.0, 0.0, 0.0, 0.0, 0.0, 0.0, 0.0, 0.0, 0.0, 0.0, 1.6814211813257008E9, 0.0, 2023-04-13 17:26:21.325
127.0, -8736.022858145578, 10057.390935109966, -17352.419179966353, -5520.411493827283, 23056.85258589418, -47273.69365378543, -10337.637107090606, -12620.487823544481, -0.13, 0.964, 0.24, 192.0, 0.0, 0.0, 0.0, 0.0, 0.0, 0.0, 0.0, 0.0, 0.0, 1.6814211813257308E9, 0.0, 2023-04-13 17:26:21.325
128.0, -8754.105419409922, 10036.134426132969, -17342.830281595026, -5858.235759524794, 22778.573367425608, -47261.5566565462, -10322.19205167199, -12589.664767940614, -0.134, 0.964, 0.24, 192.0, 251.0, 208.0, 30.0, 32.0, 7.0, 128.0, 0.0, 0.0, 0.0, 1.6814211813257704E9, 0.0, 2023-04-13 17:26:21.325
129.0, -8737.00633490161, 10052.831179241084, -17320.970275517735, -5662.300367629572, 22714.40150909442, -47243.16117085948, -10327.802339530272, -12606.406224537639, -0.134, 0.964, 0.24, 192.0, 0.0, 0.0, 0.0, 0.0, 0.0, 0.0, 0.0, 0.0, 0.0, 1.6814211813258035E9, 0.0, 2023-04-13 17:26:21.325
130.0, -8714.654590446306, 10080.703804576851, -17327.541688387595, -5292.200182938598, 23014.51838189583, -47250.336080829635, -10339.33583966921, -12629.875556215711, -0.134, 0.964, 0.24, 192.0, 0.0, 0.0, 0.0, 0.0, 0.0, 0.0, 0.0, 0.0, 0.0, 1.681421181325834E9, 0.0, 2023-04-13 17:26:21.325
131.0, -8726.098683607423, 10077.351042908555, -17346.67478164134, -5458.564216919448, 23088.212083364975, -47261.3554908461, -10342.308621681765, -12624.622896268715, -0.134, 0.964, 0.24, 192.0, 0.0, 0.0, 0.0, 0.0, 0.0, 0.0, 0.0, 0.0, 0.0, 1.6814211813258617E9, 0.0, 2023-04-13 17:26:21.325
132.0, -8742.393105315341, 10057.03330719868, -17339.1422437599, -5809.888936267965, 22847.483795581316, -47244.457572037885, -10327.534118596806, -12587.943683617556, -0.134, 0.964, 0.24, 192.0, 0.0, 0.0, 0.0, 0.0, 0.0, 0.0, 0.0, 0.0, 0.0, 1.6814211813258932E9, 0.0, 2023-04-13 17:26:21.325
133.0, -8724.757578940103, 10074.065336473624, -17307.648635822374, -5727.925089350354, 22694.642566995928, -47215.62382169054, -10309.406853843553, -12581.975767847987, -0.134, 0.964, 0.24, 192.0, 0.0, 0.0, 0.0, 0.0, 0.0, 0.0, 0.0, 0.0, 0.0, 1.6814211813259246E9, 0.0, 2023-04-13 17:26:21.325
134.0, -8692.302845990998, 10099.434566430398, -17307.492173611186, -5306.90763079019, 22957.16380562351, -47220.54120547071, -10319.912173737548, -12614.743425219469, -0.134, 0.964, 0.24, 192.0, 0.0, 0.0, 0.0, 0.0, 0.0, 0.0, 0.0, 0.0, 0.0, 1.6814211813259523E9, 0.0, 2023-04-13 17:26:21.325
135.0, -8710.63127644435, 10084.213028456334, -17337.823490837036, -5385.049329405943, 23101.064336426778, -47246.290415083226, -10339.514653624852, -12622.231259611995, -0.134, 0.964, 0.24, 192.0, 0.0, 0.0, 0.0, 0.0, 0.0, 0.0, 0.0, 0.0, 0.0, 1.6814211813259792E9, 0.0, 2023-04-13 17:26:21.325
136.0, -8746.461122806206, 10050.260728628722, -17345.490139185207, -5761.385650799948, 22892.790781592226, -47251.11839188557, -10331.959763998957, -12599.164259334118, -0.134, 0.964, 0.24, 192.0, 0.0, 0.0, 0.0, 0.0, 0.0, 0.0, 0.0, 0.0, 0.0, 1.681421181326007E9, 0.0, 2023-04-13 17:26:21.326
137.0, -8739.39797155833, 10047.80203673864, -17321.014979006646, -5803.697503053845, 22678.25873831019, -47234.13106609954, -10310.166813155034, -12593.531619731382, -0.134, 0.964, 0.24, 192.0, 0.0, 0.0, 0.0, 0.0, 0.0, 0.0, 0.0, 0.0, 0.0, 1.6814211813260372E9, 0.0, 2023-04-13 17:26:21.326
138.0, -8706.809128142491, 10078.155705708947, -17311.739005057694, -5366.9667681416, 22901.61972065207, -47231.71707769836, -10318.638124303596, -12627.483919558994, -0.136, 0.97, 0.244, 192.0, 251.0, 192.0, 30.0, 80.0, 7.0, 160.0, 0.0, 0.0, 0.0, 1.681421181326068E9, 0.0, 2023-04-13 17:26:21.326
139.0, -8719.057884104, 10070.869037016517, -17351.301592743588, -5359.925968638178, 23094.76114449038, -47269.02213919427, -10353.752714842882, -12652.02613497092, -0.136, 0.97, 0.244, 192.0, 0.0, 0.0, 0.0, 0.0, 0.0, 0.0, 0.0, 0.0, 0.0, 1.6814211813261476E9, 0.0, 2023-04-13 17:26:21.326
140.0, -8750.529140297072, 10042.012934924715, -17364.377363249943, -5721.286621247127, 22934.29797104573, -47272.9560462184, -10351.964575286458, -12630.434349827094, -0.136, 0.97, 0.244, 192.0, 0.0, 0.0, 0.0, 0.0, 0.0, 0.0, 0.0, 0.0, 0.0, 1.6814211813261812E9, 0.0, 2023-04-13 17:26:21.326
141.0, -8747.623413517882, 10050.216025139813, -17330.112138999957, -5839.527349415702, 22672.514339985173, -47231.15828408698, -10304.377711341109, -12587.675462684092, -0.136, 0.97, 0.244, 192.0, 0.0, 0.0, 0.0, 0.0, 0.0, 0.0, 0.0, 0.0, 0.0, 1.6814211813262146E9, 0.0, 2023-04-13 17:26:21.326
142.0, -8714.989866613134, 10081.642577843973, -17314.845897536983, -5410.999704718555, 22839.57127804414, -47219.17774905894, -10319.196917914978, -12609.758986205934, -0.136, 0.97, 0.244, 192.0, 0.0, 0.0, 0.0, 0.0, 0.0, 0.0, 0.0, 0.0, 0.0, 1.6814211813262527E9, 0.0, 2023-04-13 17:26:21.326
143.0, -8714.162852068288, 10083.788345311683, -17341.2433077387, -5289.786194537424, 23091.318975844264, -47247.13978137253, -10340.18520595851, -12636.916355719133, -0.136, 0.97, 0.244, 192.0, 0.0, 0.0, 0.0, 0.0, 0.0, 0.0, 0.0, 0.0, 0.0, 1.6814211813262844E9, 0.0, 2023-04-13 17:26:21.326
144.0, -8748.338669340452, 10055.446333342354, -17352.128607288436, -5624.347105544461, 22982.26481464682, -47251.05133665221, -10323.130824939111, -12611.837698440278, -0.136, 0.97, 0.244, 192.0, 0.0, 0.0, 0.0, 0.0, 0.0, 0.0, 0.0, 0.0, 0.0, 1.68142118132632E9, 0.0, 2023-04-13 17:26:21.326
145.0, -8749.098628651933, 10049.679583272886, -17332.01203727866, -5844.578843662602, 22695.3578228185, -47229.72777244184, -10299.505031049852, -12577.34895674574, -0.136, 0.97, 0.244, 192.0, 0.0, 0.0, 0.0, 0.0, 0.0, 0.0, 0.0, 0.0, 0.0, 1.6814211813263755E9, 0.0, 2023-04-13 17:26:21.326
146.0, -8710.944200866723, 10081.039080743682, -17306.218124177234, -5478.837249140412, 22767.062219031122, -47215.176786801436, -10304.17654564101, -12599.946570390055, -0.136, 0.97, 0.244, 192.0, 0.0, 0.0, 0.0, 0.0, 0.0, 0.0, 0.0, 0.0, 0.0, 1.6814211813264065E9, 0.0, 2023-04-13 17:26:21.326
147.0, -8710.184241555244, 10081.217894699323, -17333.2413832237, -5251.631766752215, 23045.855527622167, -47246.849208694606, -10340.743999569893, -12634.97175395152, -0.136, 0.97, 0.244, 192.0, 0.0, 0.0, 0.0, 0.0, 0.0, 0.0, 0.0, 0.0, 0.0, 1.6814211813264377E9, 0.0, 2023-04-13 17:26:21.326
148.0, -8742.594271015438, 10052.048868185148, -17354.453188711785, -5551.145142453331, 22997.106372965143, -47268.75391826081, -10350.779932830326, -12627.327457347807, -0.128, 0.974, 0.246, 192.0, 252.0, 0.0, 30.0, 112.0, 7.0, 176.0, 0.0, 0.0, 0.0, 1.6814211813264735E9, 0.0, 2023-04-13 17:26:21.326
149.0, -8759.760410757115, 10031.351152819534, -17344.372551962442, -5835.4369801803805, 22726.046767955635, -47259.4555925674, -10341.302793181276, -12609.446061783561, -0.128, 0.974, 0.246, 192.0, 0.0, 0.0, 0.0, 0.0, 0.0, 0.0, 0.0, 0.0, 0.0, 1.6814211813265114E9, 0.0, 2023-04-13 17:26:21.326
150.0, -8729.272631320075, 10049.612528039519, -17312.566019602542, -5557.940072767744, 22730.964151735803, -47238.6014149906, -10326.99767672988, -12613.469375785515, -0.128, 0.974, 0.246, 192.0, 0.0, 0.0, 0.0, 0.0, 0.0, 0.0, 0.0, 0.0, 0.0, 1.6814211813265493E9, 0.0, 2023-04-13 17:26:21.326
151.0, -8712.978209612156, 10060.967214222816, -17325.61943836444, -5245.663850982649, 23021.60388488816, -47255.298168098714, -10352.076334008734, -12634.994105695976, -0.128, 0.974, 0.246, 192.0, 0.0, 0.0, 0.0, 0.0, 0.0, 0.0, 0.0, 0.0, 0.0, 1.6814211813265767E9, 0.0, 2023-04-13 17:26:21.326
152.0, -8744.248300105131, 10042.504673302732, -17355.43666546782, -5481.117127074853, 23047.151928800577, -47281.96379923389, -10378.563151188273, -12637.475149330516, -0.128, 0.974, 0.246, 192.0, 0.0, 0.0, 0.0, 0.0, 0.0, 0.0, 0.0, 0.0, 0.0, 1.6814211813266053E9, 0.0, 2023-04-13 17:26:21.326
153.0, -8765.817733504502, 10027.283135328667, -17350.586336921016, -5817.91321252742, 22782.66373666093, -47274.29715088572, -10362.648709136094, -12609.982503650488, -0.128, 0.974, 0.246, 192.0, 0.0, 0.0, 0.0, 0.0, 0.0, 0.0, 0.0, 0.0, 0.0, 1.6814211813266363E9, 0.0, 2023-04-13 17:26:21.326
154.0, -8743.644803004838, 10052.339440863067, -17314.801194048072, -5640.820341208022, 22692.139171616935, -47246.6033395056, -10329.61283083115, -12605.288637314874, -0.128, 0.974, 0.246, 192.0, 0.0, 0.0, 0.0, 0.0, 0.0, 0.0, 0.0, 0.0, 0.0, 1.68142118132667E9, 0.0, 2023-04-13 17:26:21.326
155.0, -8719.057884104, 10070.71257480533, -17323.294856941087, -5256.817371465847, 22976.67687853299, -47259.634406523044, -10348.90238629608, -12637.54220456388, -0.128, 0.974, 0.246, 192.0, 0.0, 0.0, 0.0, 0.0, 0.0, 0.0, 0.0, 0.0, 0.0, 1.6814211813267562E9, 0.0, 2023-04-13 17:26:21.326
156.0, -8742.169587870787, 10048.360830350022, -17356.643659668407, -5419.649829822759, 23067.8943476551, -47288.82578478167, -10373.422249963553, -12641.900794732666, -0.128, 0.974, 0.246, 192.0, 0.0, 0.0, 0.0, 0.0, 0.0, 0.0, 0.0, 0.0, 0.0, 1.6814211813267968E9, 0.0, 2023-04-13 17:26:21.326
157.0, -8770.958634729222, 10021.494033514742, -17356.28603175712, -5790.487622080758, 22812.48096376431, -47280.1086044441, -10357.731325355928, -12605.847430926256, -0.128, 0.974, 0.246, 192.0, 0.0, 0.0, 0.0, 0.0, 0.0, 0.0, 0.0, 0.0, 0.0, 1.6814211813268268E9, 0.0, 2023-04-13 17:26:21.326
158.0, -8759.067506678999, 10033.452216798332, -17334.694246613293, -5723.298278248105, 22667.73106667174, -47263.27774086926, -10355.965537543958, -12608.663750727625, -0.138, 0.966, 0.25, 192.0, 251.0, 176.0, 30.0, 48.0, 7.0, 208.0, 0.0, 0.0, 0.0, 1.6814211813268468E9, 0.0, 2023-04-13 17:26:21.326
159.0, -8725.718703951681, 10059.983737466782, -17328.681627354817, -5303.711331333081, 22922.943284862435, -47269.78209850575, -10358.826560834237, -12639.889137731689, -0.138, 0.966, 0.25, 192.0, 0.0, 0.0, 0.0, 0.0, 0.0, 0.0, 0.0, 0.0, 0.0, 1.6814211813268676E9, 0.0, 2023-04-13 17:26:21.326
160.0, -8738.325087824474, 10047.98085069428, -17352.218014266255, -5370.766564699003, 23065.61446972066, -47289.67515107097, -10364.86153183717, -12634.480015573505, -0.138, 0.966, 0.25, 192.0, 0.0, 0.0, 0.0, 0.0, 0.0, 0.0, 0.0, 0.0, 0.0, 1.681421181326887E9, 0.0, 2023-04-13 17:26:21.326
161.0, -8771.629187062883, 10014.296771800135, -17360.91284285937, -5736.37404875446, 22879.804418063693, -47292.33500866115, -10358.357174200675, -12610.45189028405, -0.138, 0.966, 0.25, 192.0, 0.0, 0.0, 0.0, 0.0, 0.0, 0.0, 0.0, 0.0, 0.0, 1.6814211813269062E9, 0.0, 2023-04-13 17:26:21.326
162.0, -8760.296852624042, 10020.845832925539, -17333.978990790725, -5790.845249992043, 22671.039124851122, -47274.14068867453, -10348.343592684698, -12598.717224445014, -0.138, 0.966, 0.25, 192.0, 0.0, 0.0, 0.0, 0.0, 0.0, 0.0, 0.0, 0.0, 0.0, 1.6814211813269255E9, 0.0, 2023-04-13 17:26:21.326
163.0, -8726.702180707714, 10054.507560075232, -17319.22683945022, -5360.0377273604545, 22876.295194184208, -47267.56927580467, -10356.993717788902, -12627.372160836716, -0.138, 0.966, 0.25, 192.0, 0.0, 0.0, 0.0, 0.0, 0.0, 0.0, 0.0, 0.0, 0.0, 1.681421181326945E9, 0.0, 2023-04-13 17:26:21.326
164.0, -8739.688544236249, 10044.292812859156, -17354.654354411883, -5331.628660157759, 23079.383144305128, -47297.7664825638, -10385.000453591401, -12640.000896453965, -0.138, 0.966, 0.25, 192.0, 0.0, 0.0, 0.0, 0.0, 0.0, 0.0, 0.0, 0.0, 0.0, 1.6814211813269644E9, 0.0, 2023-04-13 17:26:21.326
165.0, -8774.445506864251, 10021.248164325734, -17370.077058086044, -5691.804670310577, 22935.81788966869, -47304.159081478014, -10380.016014577868, -12615.369274064216, -0.138, 0.966, 0.25, 192.0, 0.0, 0.0, 0.0, 0.0, 0.0, 0.0, 0.0, 0.0, 0.0, 1.6814211813269835E9, 0.0, 2023-04-13 17:26:21.326
166.0, -8767.069431194, 10031.75348421973, -17341.802101350084, -5839.504997671247, 22672.67080219636, -47272.46430784039, -10338.933508269014, -12585.954378361033, -0.138, 0.966, 0.25, 192.0, 0.0, 0.0, 0.0, 0.0, 0.0, 0.0, 0.0, 0.0, 0.0, 1.6814211813270023E9, 0.0, 2023-04-13 17:26:21.327
167.0, -8731.0607708765, 10058.150894421446, -17326.200583720278, -5430.378667161306, 22801.61801595903, -47260.036737923234, -10347.561281628763, -12615.861012442234, -0.138, 0.966, 0.25, 192.0, 0.0, 0.0, 0.0, 0.0, 0.0, 0.0, 0.0, 0.0, 0.0, 1.6814211813270216E9, 0.0, 2023-04-13 17:26:21.327
168.0, -8740.716724481194, 10047.399705338443, -17362.119837059956, -5298.123395219254, 23055.287963782306, -47292.759691805804, -10380.172476789056, -12643.376009866717, -0.138, 0.96, 0.248, 192.0, 251.0, 176.0, 30.0, 0.0, 7.0, 192.0, 0.0, 0.0, 0.0, 1.6814211813270404E9, 0.0, 2023-04-13 17:26:21.327
169.0, -8769.617530061905, 10022.544565504142, -17375.709697688784, -5635.299460327561, 22962.036485914767, -47299.84519479814, -10377.847895365703, -12614.095224630264, -0.138, 0.96, 0.248, 192.0, 0.0, 0.0, 0.0, 0.0, 0.0, 0.0, 0.0, 0.0, 0.0, 1.6814211813270605E9, 0.0, 2023-04-13 17:26:21.327
170.0, -8780.88280926738, 10013.201536321823, -17356.66601141286, -5871.088012586595, 22679.599842977506, -47284.57895333516, -10356.703145110983, -12588.25660803993, -0.138, 0.96, 0.248, 192.0, 0.0, 0.0, 0.0, 0.0, 0.0, 0.0, 0.0, 0.0, 0.0, 1.681421181327105E9, 0.0, 2023-04-13 17:26:21.327
171.0, -8743.309526838008, 10040.336554090567, -17330.894450055894, -5523.786607240035, 22749.60550661153, -47272.24079039584, -10353.596252631694, -12613.223506596507, -0.138, 0.96, 0.248, 192.0, 0.0, 0.0, 0.0, 0.0, 0.0, 0.0, 0.0, 0.0, 0.0, 1.681421181327129E9, 0.0, 2023-04-13 17:26:21.327
172.0, -8723.617639972883, 10057.212121154324, -17345.221918251744, -5286.679302058137, 23021.872105821625, -47291.39623539403, -10371.790572618314, -12636.64813478567, -0.138, 0.96, 0.248, 192.0, 0.0, 0.0, 0.0, 0.0, 0.0, 0.0, 0.0, 0.0, 0.0, 1.6814211813271625E9, 0.0, 2023-04-13 17:26:21.327
173.0, -8759.559245057017, 10027.081969628569, -17367.618366195962, -5571.976968285677, 22988.88093100559, -47305.94722103444, -10372.841104607714, -12618.386759565683, -0.138, 0.96, 0.248, 192.0, 0.0, 0.0, 0.0, 0.0, 0.0, 0.0, 0.0, 0.0, 0.0, 1.681421181327182E9, 0.0, 2023-04-13 17:26:21.327
174.0, -8780.458126122729, 10010.653437453919, -17361.315174259566, -5860.359175248048, 22733.020512225692, -47291.507994116306, -10356.770200344348, -12584.188590549064, -0.138, 0.96, 0.248, 192.0, 0.0, 0.0, 0.0, 0.0, 0.0, 0.0, 0.0, 0.0, 0.0, 1.681421181327201E9, 0.0, 2023-04-13 17:26:21.327
175.0, -8752.898425209336, 10034.346286576545, -17331.1403192449, -5605.057550079531, 22703.695023500328, -47267.61397929359, -10349.796456074293, -12594.246875553952, -0.138, 0.96, 0.248, 192.0, 0.0, 0.0, 0.0, 0.0, 0.0, 0.0, 0.0, 0.0, 0.0, 1.6814211813272197E9, 0.0, 2023-04-13 17:26:21.327
176.0, -8735.598175000927, 10051.646536784952, -17346.115988029956, -5279.124412432243, 22991.987823484877, -47286.52355510277, -10380.910084356081, -12631.373123094216, -0.138, 0.96, 0.248, 192.0, 0.0, 0.0, 0.0, 0.0, 0.0, 0.0, 0.0, 0.0, 0.0, 1.6814211813272388E9, 0.0, 2023-04-13 17:26:21.327
177.0, -8758.933396212267, 10033.899251687439, -17371.932252875835, -5501.747787207101, 23036.244277506386, -47310.28345945877, -10381.088898311722, -12620.443120055572, -0.138, 0.96, 0.248, 192.0, 0.0, 0.0, 0.0, 0.0, 0.0, 0.0, 0.0, 0.0, 0.0, 1.6814211813272579E9, 0.0, 2023-04-13 17:26:21.327
178.0, -8786.627207592393, 10008.798242664128, -17369.29474703011, -5850.144428031973, 22775.04179180167, -47306.30484894572, -10364.414496948064, -12595.029186609887, -0.14, 0.96, 0.246, 192.0, 251.0, 160.0, 30.0, 0.0, 7.0, 176.0, 0.0, 0.0, 0.0, 1.6814211813272767E9, 0.0, 2023-04-13 17:26:21.327
179.0, -8758.598120045439, 10031.999353408737, -17334.85070882448, -5689.725958076234, 22675.710639442284, -47279.99684572183, -10353.842121820704, -12598.739576189468, -0.14, 0.96, 0.246, 192.0, 0.0, 0.0, 0.0, 0.0, 0.0, 0.0, 0.0, 0.0, 0.0, 1.681421181327297E9, 0.0, 2023-04-13 17:26:21.327
180.0, -8732.513634266095, 10051.937109462871, -17345.221918251744, -5297.899877774701, 22957.63319225707, -47294.994866251334, -10383.659348924082, -12637.475149330516, -0.14, 0.96, 0.246, 192.0, 0.0, 0.0, 0.0, 0.0, 0.0, 0.0, 0.0, 0.0, 0.0, 1.6814211813274343E9, 0.0, 2023-04-13 17:26:21.327
181.0, -8763.135524169866, 10031.529966775175, -17382.616386725473, -5445.443742924183, 23070.86712966766, -47324.54387242125, -10397.562133975283, -12638.59273655328, -0.14, 0.96, 0.246, 192.0, 0.0, 0.0, 0.0, 0.0, 0.0, 0.0, 0.0, 0.0, 0.0, 1.681421181327454E9, 0.0, 2023-04-13 17:26:21.327
182.0, -8780.16755344481, 10023.170414348891, -17366.836055140026, -5803.786910031666, 22836.28557160921, -47299.39815990903, -10345.504921138874, -12581.260512025417, -0.14, 0.96, 0.246, 192.0, 0.0, 0.0, 0.0, 0.0, 0.0, 0.0, 0.0, 0.0, 0.0, 1.6814211813274732E9, 0.0, 2023-04-13 17:26:21.327
183.0, -8765.884788737869, 10035.173301121391, -17339.38811294891, -5751.014441372686, 22662.791331147117, -47273.87246774107, -10338.66528733555, -12579.695889913546, -0.14, 0.96, 0.246, 192.0, 0.0, 0.0, 0.0, 0.0, 0.0, 0.0, 0.0, 0.0, 0.0, 1.6814211813274925E9, 0.0, 2023-04-13 17:26:21.327
184.0, -8739.39797155833, 10055.491036831265, -17340.505700171674, -5332.701543891614, 22902.62554915256, -47285.160098691005, -10370.561226673273, -12623.907640446145, -0.14, 0.96, 0.246, 192.0, 0.0, 0.0, 0.0, 0.0, 0.0, 0.0, 0.0, 0.0, 0.0, 1.6814211813275115E9, 0.0, 2023-04-13 17:26:21.327
185.0, -8747.623413517882, 10045.902138459938, -17368.62419469645, -5393.453585321139, 23048.291867767795, -47313.34564844915, -10393.091785084223, -12634.569422551325, -0.14, 0.96, 0.246, 192.0, 0.0, 0.0, 0.0, 0.0, 0.0, 0.0, 0.0, 0.0, 0.0, 1.6814211813275523E9, 0.0, 2023-04-13 17:26:21.327
186.0, -8772.992643474656, 10023.84096668255, -17367.90893887388, -5754.657775718901, 22853.898746239993, -47305.05315125622, -10367.119058027156, -12598.963093634022, -0.14, 0.96, 0.246, 192.0, 0.0, 0.0, 0.0, 0.0, 0.0, 0.0, 0.0, 0.0, 0.0, 1.6814211813275716E9, 0.0, 2023-04-13 17:26:21.327
187.0, -8764.87896023738, 10028.847757440539, -17338.158767003868, -5800.925886741386, 22651.39194147491, -47275.52649683077, -10344.879072294125, -12578.086564312765, -0.14, 0.96, 0.246, 192.0, 0.0, 0.0, 0.0, 0.0, 0.0, 0.0, 0.0, 0.0, 0.0, 1.6814211813275907E9, 0.0, 2023-04-13 17:26:21.327
188.0, -8737.810997702003, 10047.84674022755, -17331.47559541173, -5377.7626607135135, 22846.746188014295, -47275.72766253086, -10365.755601615383, -12612.508250773937, -0.134, 0.964, 0.244, 192.0, 251.0, 208.0, 30.0, 32.0, 7.0, 160.0, 0.0, 0.0, 0.0, 1.6814211813276098E9, 0.0, 2023-04-13 17:26:21.327
189.0, -8741.700201237227, 10047.869091972005, -17363.81856963856, -5335.450808459617, 23056.383199260617, -47304.27084020029, -10387.257979781387, -12632.40130333916, -0.134, 0.964, 0.244, 192.0, 0.0, 0.0, 0.0, 0.0, 0.0, 0.0, 0.0, 0.0, 0.0, 1.6814211813276303E9, 0.0, 2023-04-13 17:26:21.327
190.0, -8775.138410942365, 10021.158757347914, -17376.96139537828, -5686.261437685662, 22929.671159943482, -47306.818939068195, -10378.116116299167, -12606.562686748826, -0.134, 0.964, 0.244, 192.0, 0.0, 0.0, 0.0, 0.0, 0.0, 0.0, 0.0, 0.0, 0.0, 1.6814211813276494E9, 0.0, 2023-04-13 17:26:21.327
191.0, -8780.435774378273, 10011.569858976587, -17360.465807970264, -5849.58563442059, 22686.327718058554, -47286.14357544704, -10358.647746878594, -12586.267302783406, -0.134, 0.964, 0.244, 192.0, 0.0, 0.0, 0.0, 0.0, 0.0, 0.0, 0.0, 0.0, 0.0, 1.6814211813276684E9, 0.0, 2023-04-13 17:26:21.327
192.0, -8739.643840747338, 10047.712629760817, -17333.800176835084, -5451.009327293555, 22811.318673052632, -47265.93759845944, -10354.57972938773, -12601.622951224203, -0.134, 0.964, 0.244, 192.0, 0.0, 0.0, 0.0, 0.0, 0.0, 0.0, 0.0, 0.0, 0.0, 1.6814211813276963E9, 0.0, 2023-04-13 17:26:21.327
193.0, -8733.653573233316, 10056.51921707621, -17359.303517258588, -5299.062168486377, 23055.019742848843, -47290.56922084919, -10377.870247110159, -12625.382855580194, -0.134, 0.964, 0.244, 192.0, 0.0, 0.0, 0.0, 0.0, 0.0, 0.0, 0.0, 0.0, 0.0, 1.6814211813277216E9, 0.0, 2023-04-13 17:26:21.327
194.0, -8768.187018416766, 10024.93620216086, -17380.314157046578, -5626.872852667911, 22973.83820698717, -47304.98609602286, -10383.636997179628, -12610.92127691761, -0.134, 0.964, 0.244, 192.0, 0.0, 0.0, 0.0, 0.0, 0.0, 0.0, 0.0, 0.0, 0.0, 1.6814211813277626E9, 0.0, 2023-04-13 17:26:21.327
195.0, -8778.692338310759, 10012.173356076879, -17362.589223693518, -5876.765355678243, 22691.267453583176, -47288.155232448014, -10366.314395226766, -12585.44028823856, -0.134, 0.964, 0.244, 192.0, 0.0, 0.0, 0.0, 0.0, 0.0, 0.0, 0.0, 0.0, 0.0, 1.681421181327783E9, 0.0, 2023-04-13 17:26:21.327
196.0, -8744.15889312731, 10036.961440677815, -17336.929421058827, -5537.063543446487, 22742.631762341472, -47272.73252877385, -10361.86639808016, -12607.456756527037, -0.134, 0.964, 0.244, 192.0, 0.0, 0.0, 0.0, 0.0, 0.0, 0.0, 0.0, 0.0, 0.0, 1.6814211813278024E9, 0.0, 2023-04-13 17:26:21.327
197.0, -8733.54181451104, 10047.444408827354, -17358.700020158296, -5291.909610260679, 23023.101451766666, -47294.659590084506, -10380.105421555689, -12632.848338228267, -0.134, 0.964, 0.244, 192.0, 0.0, 0.0, 0.0, 0.0, 0.0, 0.0, 0.0, 0.0, 0.0, 1.6814211813278215E9, 0.0, 2023-04-13 17:26:21.327
198.0, -8761.861474735913, 10024.757388205218, -17380.425915768854, -5565.383203671361, 23018.809916831247, -47308.18239547997, -10378.093764554711, -12619.727864233002, -0.124, 0.966, 0.252, 192.0, 252.0, 32.0, 30.0, 48.0, 7.0, 224.0, 0.0, 0.0, 0.0, 1.6814211813278408E9, 0.0, 2023-04-13 17:26:21.327
199.0, -8775.049003964545, 10014.185013077857, -17367.9983458517, -5873.837277154598, 22740.798919296136, -47289.608095837604, -10360.949976557491, -12586.06613708331, -0.124, 0.966, 0.252, 192.0, 0.0, 0.0, 0.0, 0.0, 0.0, 0.0, 0.0, 0.0, 0.0, 1.6814211813278618E9, 0.0, 2023-04-13 17:26:21.327
200.0, -8743.82361696048, 10041.297679102145, -17336.057703025068, -5615.16053857333, 22710.06527067009, -47259.768516989774, -10346.398990917087, -12586.244951038952, -0.124, 0.966, 0.252, 192.0, 0.0, 0.0, 0.0, 0.0, 0.0, 0.0, 0.0, 0.0, 0.0, 1.6814211813278809E9, 0.0, 2023-04-13 17:26:21.327
201.0, -8729.29498306453, 10059.4249438554, -17356.174273034845, -5286.679302058137, 22997.59811134316, -47280.801508522214, -10379.032537821835, -12627.372160836716, -0.124, 0.966, 0.252, 192.0, 0.0, 0.0, 0.0, 0.0, 0.0, 0.0, 0.0, 0.0, 0.0, 1.6814211813279257E9, 0.0, 2023-04-13 17:26:21.327
202.0, -8747.623413517882, 10046.617394282508, -17376.24613955571, -5505.905211675788, 23022.050919777266, -47293.251430183824, -10378.317281999265, -12614.810480452834, -0.124, 0.966, 0.252, 192.0, 0.0, 0.0, 0.0, 0.0, 0.0, 0.0, 0.0, 0.0, 0.0, 1.6814211813279457E9, 0.0, 2023-04-13 17:26:21.327
203.0, -8767.292948638553, 10025.070312627591, -17369.987651108226, -5836.398105191959, 22777.433428458386, -47278.45457535441, -10355.116171254656, -12583.607445193225, -0.124, 0.966, 0.252, 192.0, 0.0, 0.0, 0.0, 0.0, 0.0, 0.0, 0.0, 0.0, 0.0, 1.6814211813279648E9, 0.0, 2023-04-13 17:26:21.327
204.0, -8750.05975366351, 10038.816635467605, -17343.29966822859, -5694.330417434027, 22684.651337224404, -47259.81322047868, -10351.38342993062, -12589.35184351824, -0.124, 0.966, 0.252, 192.0, 0.0, 0.0, 0.0, 0.0, 0.0, 0.0, 0.0, 0.0, 0.0, 1.6814211813279836E9, 0.0, 2023-04-13 17:26:21.327
205.0, -8713.134671823344, 10072.701880061852, -17332.749644845684, -5297.028159740944, 22952.64875324354, -47257.533342544244, -10357.418400933553, -12606.406224537639, -0.124, 0.966, 0.252, 192.0, 0.0, 0.0, 0.0, 0.0, 0.0, 0.0, 0.0, 0.0, 0.0, 1.6814211813280032E9, 0.0, 2023-04-13 17:26:21.328
206.0, -8731.731323210159, 10055.535740320176, -17359.95171784779, -5423.091998468876, 23059.691257440005, -47280.24271491083, -10373.154029030089, -12609.31195131683, -0.124, 0.966, 0.252, 192.0, 0.0, 0.0, 0.0, 0.0, 0.0, 0.0, 0.0, 0.0, 0.0, 1.6814211813280225E9, 0.0, 2023-04-13 17:26:21.328
207.0, -8762.040288691556, 10025.27147832769, -17364.645584183407, -5792.007540703719, 22836.643199520495, -47278.11929918758, -10370.918854584557, -12581.036994580865, -0.124, 0.966, 0.252, 192.0, 0.0, 0.0, 0.0, 0.0, 0.0, 0.0, 0.0, 0.0, 0.0, 1.6814211813280425E9, 0.0, 2023-04-13 17:26:21.328
208.0, -8753.233701376164, 10028.17720510688, -17339.790444349106, -5762.927921167365, 22663.19366254731, -47254.8511332096, -10348.276537451333, -12565.502532184426, -0.124, 0.966, 0.246, 192.0, 252.0, 32.0, 30.0, 48.0, 7.0, 176.0, 0.0, 0.0, 0.0, 1.6814211813280745E9, 0.0, 2023-04-13 17:26:21.328
209.0, -8717.716779436681, 10059.983737466782, -17330.693284355795, -5336.166064282187, 22897.32818571665, -47252.90653144199, -10354.937357299013, -12589.664767940614, -0.124, 0.966, 0.246, 192.0, 0.0, 0.0, 0.0, 0.0, 0.0, 0.0, 0.0, 0.0, 0.0, 1.6814211813280954E9, 0.0, 2023-04-13 17:26:21.328
210.0, -8735.39700930083, 10048.070257672103, -17362.43276148233, -5373.784050200468, 23069.101341855687, -47284.534249846256, -10376.551494187295, -12609.200192594551, -0.124, 0.966, 0.246, 192.0, 0.0, 0.0, 0.0, 0.0, 0.0, 0.0, 0.0, 0.0, 0.0, 1.6814211813281145E9, 0.0, 2023-04-13 17:26:21.328
211.0, -8768.008204461123, 10020.085873614058, -17370.457037741788, -5746.611147714991, 22889.639185624026, -47288.714026059395, -10369.354232472686, -12585.283826027373, -0.124, 0.966, 0.246, 192.0, 0.0, 0.0, 0.0, 0.0, 0.0, 0.0, 0.0, 0.0, 0.0, 1.681421181328133E9, 0.0, 2023-04-13 17:26:21.328
212.0, -8755.73709675516, 10029.853585941028, -17337.77878734813, -5824.059942252629, 22660.82437763505, -47258.27095011127, -10344.700258338484, -12560.182817004064, -0.124, 0.966, 0.246, 192.0, 0.0, 0.0, 0.0, 0.0, 0.0, 0.0, 0.0, 0.0, 0.0, 1.6814211813281524E9, 0.0, 2023-04-13 17:26:21.328
213.0, -8722.142424838832, 10059.380240366489, -17325.172403475335, -5395.0182074330105, 22845.919173469447, -47252.03481340824, -10355.876130566136, -12590.268265040906, -0.124, 0.966, 0.246, 192.0, 0.0, 0.0, 0.0, 0.0, 0.0, 0.0, 0.0, 0.0, 0.0, 1.6814211813281713E9, 0.0, 2023-04-13 17:26:21.328
214.0, -8730.054942376011, 10055.80396125364, -17358.208281780277, -5345.777314397969, 23043.28507700981, -47284.28838065724, -10386.118040814166, -12615.25751534194, -0.124, 0.966, 0.246, 192.0, 0.0, 0.0, 0.0, 0.0, 0.0, 0.0, 0.0, 0.0, 0.0, 1.6814211813281944E9, 0.0, 2023-04-13 17:26:21.328
215.0, -8764.990718959656, 10023.617449237998, -17376.223787811254, -5694.8445075565, 22911.208619023397, -47292.78204355026, -10386.565075703273, -12593.129288331187, -0.124, 0.966, 0.246, 192.0, 0.0, 0.0, 0.0, 0.0, 0.0, 0.0, 0.0, 0.0, 0.0, 1.6814211813282135E9, 0.0, 2023-04-13 17:26:21.328
216.0, -8767.002375960634, 10017.35896079051, -17352.53093868863, -5858.906311858454, 22662.657220680383, -47265.53526705924, -10357.306642211275, -12555.466598923995, -0.124, 0.966, 0.246, 192.0, 0.0, 0.0, 0.0, 0.0, 0.0, 0.0, 0.0, 0.0, 0.0, 1.6814211813282523E9, 0.0, 2023-04-13 17:26:21.328
217.0, -8741.901366937323, 10036.760274977718, -17334.537784402106, -5469.963606591655, 22785.234187273287, -47256.43810706593, -10364.548607414796, -12585.976730105487, -0.124, 0.966, 0.246, 192.0, 0.0, 0.0, 0.0, 0.0, 0.0, 0.0, 0.0, 0.0, 0.0, 1.6814211813282719E9, 0.0, 2023-04-13 17:26:21.328
218.0, -8743.689506493749, 10034.07806564308, -17361.516339959664, -5317.345895450819, 23036.33368448421, -47286.545906847234, -10386.09568906971, -12617.44798629856, -0.13, 0.964, 0.248, 192.0, 251.0, 240.0, 30.0, 32.0, 7.0, 192.0, 0.0, 0.0, 0.0, 1.6814211813282936E9, 0.0, 2023-04-13 17:26:21.328
219.0, -8781.709823812225, 10000.371635004478, -17384.784505937638, -5644.0166406651315, 22957.20850911242, -47304.3155436892, -10389.962540860479, -12607.836736182779, -0.13, 0.964, 0.248, 192.0, 0.0, 0.0, 0.0, 0.0, 0.0, 0.0, 0.0, 0.0, 0.0, 1.6814211813283138E9, 0.0, 2023-04-13 17:26:21.328
220.0, -8792.058681495033, 9987.407623220399, -17367.283090029134, -5893.015073897252, 22684.62898547995, -47281.91909574498, -10369.465991194964, -12571.67161365409, -0.13, 0.964, 0.248, 192.0, 0.0, 0.0, 0.0, 0.0, 0.0, 0.0, 0.0, 0.0, 0.0, 1.6814211813283327E9, 0.0, 2023-04-13 17:26:21.328
221.0, -8772.769126030104, 10000.304579771111, -17348.52997643113, -5569.67473860678, 22736.999122738736, -47274.386557863545, -10373.399898219097, -12605.623913481702, -0.13, 0.964, 0.248, 192.0, 0.0, 0.0, 0.0, 0.0, 0.0, 0.0, 0.0, 0.0, 0.0, 1.6814211813283515E9, 0.0, 2023-04-13 17:26:21.328
222.0, -8759.02280319009, 10014.989675878249, -17359.52703470314, -5311.62384887026, 23018.251123219863, -47288.66932257049, -10397.830354908749, -12621.627762511704, -0.13, 0.964, 0.248, 192.0, 0.0, 0.0, 0.0, 0.0, 0.0, 0.0, 0.0, 0.0, 0.0, 1.6814211813283708E9, 0.0, 2023-04-13 17:26:21.328
223.0, -8798.339521686974, 9981.462059195288, -17382.102296603, -5574.502715409126, 23002.873123034613, -47301.45452039892, -10405.608761979194, -12606.652093726647, -0.13, 0.964, 0.248, 192.0, 0.0, 0.0, 0.0, 0.0, 0.0, 0.0, 0.0, 0.0, 0.0, 1.68142118132839E9, 0.0, 2023-04-13 17:26:21.328
224.0, -8826.972106334222, 9955.265814693668, -17372.647508698406, -5889.148222106483, 22726.382044122463, -47288.06582547019, -10381.91591285657, -12576.007852078421, -0.13, 0.964, 0.248, 192.0, 0.0, 0.0, 0.0, 0.0, 0.0, 0.0, 0.0, 0.0, 0.0, 1.6814211813284092E9, 0.0, 2023-04-13 17:26:21.328
225.0, -8815.013923050634, 9959.713811840275, -17347.39003746391, -5653.136152402896, 22683.310232557087, -47268.932732216446, -10375.992700575913, -12587.764869661913, -0.13, 0.964, 0.248, 192.0, 0.0, 0.0, 0.0, 0.0, 0.0, 0.0, 0.0, 0.0, 0.0, 1.6814211813284283E9, 0.0, 2023-04-13 17:26:21.328
226.0, -8809.805966592547, 9963.82653282005, -17364.936156861324, -5320.922174563668, 22960.784788225268, -47289.40693013751, -10406.34636954622, -12619.459643299539, -0.13, 0.964, 0.248, 192.0, 0.0, 0.0, 0.0, 0.0, 0.0, 0.0, 0.0, 0.0, 0.0, 1.681421181328447E9, 0.0, 2023-04-13 17:26:21.328
227.0, -8852.1401705909, 9925.605049801476, -17397.16737236588, -5526.960554952688, 23006.49410563637, -47314.46323567191, -10417.522241773873, -12618.722035732513, -0.13, 0.964, 0.248, 192.0, 0.0, 0.0, 0.0, 0.0, 0.0, 0.0, 0.0, 0.0, 0.0, 1.6814211813284664E9, 0.0, 2023-04-13 17:26:21.328
228.0, -8895.122575178453, 9885.371909781923, -17394.462811286787, -5877.122983589528, 22756.422788670396, -47303.15325297752, -10395.14814557411, -12589.955340618533, -0.136, 0.968, 0.246, 192.0, 251.0, 192.0, 30.0, 64.0, 7.0, 176.0, 0.0, 0.0, 0.0, 1.6814211813284853E9, 0.0, 2023-04-13 17:26:21.328
229.0, -8898.698854291302, 9880.655691701853, -17370.546444719606, -5754.903644907909, 22644.440548949307, -47280.957970733405, -10379.636034922129, -12590.268265040906, -0.136, 0.968, 0.246, 192.0, 0.0, 0.0, 0.0, 0.0, 0.0, 0.0, 0.0, 0.0, 0.0, 1.6814211813285055E9, 0.0, 2023-04-13 17:26:21.328
230.0, -8888.841734986512, 9887.025938871615, -17384.426878026352, -5363.658709962215, 22925.49138373034, -47300.15811922051, -10409.63207598115, -12636.31285861884, -0.136, 0.968, 0.246, 192.0, 0.0, 0.0, 0.0, 0.0, 0.0, 0.0, 0.0, 0.0, 0.0, 1.6814211813285248E9, 0.0, 2023-04-13 17:26:21.328
231.0, -8911.551107353105, 9865.85883687244, -17412.992407440237, -5492.807089424979, 23033.69617863848, -47326.08614278867, -10417.544593518329, -12643.018381955431, -0.136, 0.968, 0.246, 192.0, 0.0, 0.0, 0.0, 0.0, 0.0, 0.0, 0.0, 0.0, 0.0, 1.6814211813285618E9, 0.0, 2023-04-13 17:26:21.328
232.0, -8936.897985565423, 9845.85402558494, -17408.566762038085, -5854.30185250066, 22811.251617819264, -47311.73632284836, -10391.48245948344, -12599.499535500949, -0.136, 0.968, 0.246, 192.0, 0.0, 0.0, 0.0, 0.0, 0.0, 0.0, 0.0, 0.0, 0.0, 1.6814211813285816E9, 0.0, 2023-04-13 17:26:21.328
233.0, -8913.451005631805, 9871.782049153097, -17371.61932845346, -5837.091009270073, 22611.024690988626, -47277.00171196481, -10373.042270307813, -12590.380023763184, -0.136, 0.968, 0.246, 192.0, 0.0, 0.0, 0.0, 0.0, 0.0, 0.0, 0.0, 0.0, 0.0, 1.681421181328601E9, 0.0, 2023-04-13 17:26:21.328
234.0, -8885.064290173566, 9896.368968053934, -17372.088715087022, -5405.478823838094, 22835.369150086543, -47280.44388061093, -10395.885753141136, -12627.081588158797, -0.136, 0.968, 0.246, 192.0, 0.0, 0.0, 0.0, 0.0, 0.0, 0.0, 0.0, 0.0, 0.0, 1.6814211813286202E9, 0.0, 2023-04-13 17:26:21.328
235.0, -8901.895153748412, 9878.755793423152, -17411.1595643949, -5433.083228240398, 23015.16658248503, -47311.35634319262, -10412.53780276034, -12641.386704610195, -0.136, 0.968, 0.246, 192.0, 0.0, 0.0, 0.0, 0.0, 0.0, 0.0, 0.0, 0.0, 0.0, 1.6814211813286421E9, 0.0, 2023-04-13 17:26:21.328
236.0, -8930.95242154031, 9846.85985408543, -17419.988503454748, -5796.075558194585, 22858.413798619964, -47307.802415824226, -10393.62822695115, -12599.991273878966, -0.136, 0.968, 0.246, 192.0, 0.0, 0.0, 0.0, 0.0, 0.0, 0.0, 0.0, 0.0, 0.0, 1.681421181328662E9, 0.0, 2023-04-13 17:26:21.328
237.0, -8919.418921401373, 9849.43030469779, -17389.076040873057, -5897.530126277224, 22612.14227821139, -47284.46719461289, -10373.981043574935, -12582.735727159468, -0.136, 0.968, 0.246, 192.0, 0.0, 0.0, 0.0, 0.0, 0.0, 0.0, 0.0, 0.0, 0.0, 1.681421181328685E9, 0.0, 2023-04-13 17:26:21.328
238.0, -8886.561857052071, 9878.442869000777, -17374.502703488197, -5469.315406002451, 22789.011632086236, -47278.856906754605, -10387.213276292478, -12616.240992097974, -0.13, 0.962, 0.246, 192.0, 251.0, 240.0, 30.0, 16.0, 7.0, 176.0, 0.0, 0.0, 0.0, 1.6814211813287082E9, 0.0, 2023-04-13 17:26:21.328
239.0, -8893.021511199655, 9883.67317720332, -17408.58911378254, -5396.292256866963, 23014.630140618105, -47308.60707862462, -10422.260811598399, -12636.268155129928, -0.13, 0.962, 0.246, 192.0, 0.0, 0.0, 0.0, 0.0, 0.0, 0.0, 0.0, 0.0, 0.0, 1.6814211813287537E9, 0.0, 2023-04-13 17:26:21.328
240.0, -8918.949534767811, 9864.897711860862, -17422.20132615582, -5743.437200002337, 22888.43219142344, -47313.323296704686, -10412.224878337965, -12608.708454216536, -0.13, 0.962, 0.246, 192.0, 0.0, 0.0, 0.0, 0.0, 0.0, 0.0, 0.0, 0.0, 0.0, 1.6814211813287864E9, 0.0, 2023-04-13 17:26:21.328
241.0, -8917.317857422573, 9869.14454330737, -17403.559971280094, -5925.201585912894, 22633.823470333038, -47289.45163362642, -10386.900351870103, -12581.72989865898, -0.13, 0.962, 0.246, 192.0, 0.0, 0.0, 0.0, 0.0, 0.0, 0.0, 0.0, 0.0, 0.0, 1.6814211813288162E9, 0.0, 2023-04-13 17:26:21.328
242.0, -8869.060441143565, 9917.401959586377, -17378.68247970134, -5538.404648113805, 22738.384930894965, -47268.17277290497, -10390.476630982952, -12599.678349456592, -0.13, 0.962, 0.246, 192.0, 0.0, 0.0, 0.0, 0.0, 0.0, 0.0, 0.0, 0.0, 0.0, 1.6814211813288493E9, 0.0, 2023-04-13 17:26:21.328
243.0, -8858.555121249572, 9923.34752361149, -17408.231485871256, -5362.004680872522, 22995.318233408718, -47298.995828508836, -10415.331770817253, -12635.754065007457, -0.13, 0.962, 0.246, 192.0, 0.0, 0.0, 0.0, 0.0, 0.0, 0.0, 0.0, 0.0, 0.0, 1.6814211818060808E9, 0.0, 2023-04-13 17:26:21.806
244.0, -8889.37817685344, 9894.15614535286, -17432.661942560906, -5681.2322951832175, 22935.281447801764, -47317.860700829115, -10417.857517940703, -12620.800747966856, -0.13, 0.962, 0.246, 192.0, 0.0, 0.0, 0.0, 0.0, 0.0, 0.0, 0.0, 0.0, 0.0, 1.6814211818062515E9, 0.0, 2023-04-13 17:26:21.806
245.0, -8889.66874953136, 9892.09978486297, -17412.523020806675, -5950.839036803131, 22644.619362904952, -47292.5138226168, -10391.996549605912, -12580.835828880767, -0.13, 0.962, 0.246, 192.0, 0.0, 0.0, 0.0, 0.0, 0.0, 0.0, 0.0, 0.0, 0.0, 1.6814211818062744E9, 0.0, 2023-04-13 17:26:21.806
246.0, -8851.536673490606, 9918.564250298054, -17386.662052471882, -5625.643506722869, 22687.44530528132, -47273.470136340875, -10391.48245948344, -12603.165221591618, -0.13, 0.962, 0.246, 192.0, 0.0, 0.0, 0.0, 0.0, 0.0, 0.0, 0.0, 0.0, 0.0, 1.6814211818062963E9, 0.0, 2023-04-13 17:26:21.806
247.0, -8828.201452279265, 9937.83145401853, -17403.694081746828, -5360.7976866719355, 22972.519454064306, -47299.822843053684, -10420.53972727534, -12642.16901566613, -0.13, 0.962, 0.246, 192.0, 0.0, 0.0, 0.0, 0.0, 0.0, 0.0, 0.0, 0.0, 0.0, 1.6814211818064225E9, 0.0, 2023-04-13 17:26:21.806
248.0, -8853.682440958315, 9919.01128518716, -17428.124538436477, -5620.167329331319, 22969.16669239601, -47316.89957581754, -10429.055741912813, -12631.350771349762, -0.132, 0.96, 0.246, 192.0, 251.0, 224.0, 30.0, 0.0, 7.0, 176.0, 0.0, 0.0, 0.0, 1.6814211818064437E9, 0.0, 2023-04-13 17:26:21.806
249.0, -8859.56094975006, 9915.34559909649, -17411.807764984103, -5935.192815684416, 22699.224674609268, -47294.83840404015, -10403.842974167226, -12590.78235516338, -0.132, 0.96, 0.246, 192.0, 0.0, 0.0, 0.0, 0.0, 0.0, 0.0, 0.0, 0.0, 0.0, 1.681421181806465E9, 0.0, 2023-04-13 17:26:21.806
250.0, -8827.0838650565, 9944.425218632845, -17379.68830820183, -5705.215716983762, 22651.123720541447, -47264.21651413638, -10395.036386851834, -12593.598674964747, -0.132, 0.96, 0.246, 192.0, 0.0, 0.0, 0.0, 0.0, 0.0, 0.0, 0.0, 0.0, 0.0, 1.6814211818064873E9, 0.0, 2023-04-13 17:26:21.806
251.0, -8801.69228335527, 9967.78279158864, -17394.52986652015, -5356.77437266998, 22944.244497328342, -47283.28255215676, -10425.233593610954, -12630.568460293825, -0.132, 0.96, 0.246, 192.0, 0.0, 0.0, 0.0, 0.0, 0.0, 0.0, 0.0, 0.0, 0.0, 1.681421181806507E9, 0.0, 2023-04-13 17:26:21.806
252.0, -8816.466786440229, 9962.418372919366, -17417.798032498125, -5548.619395329881, 22997.44164913197, -47303.2650116998, -10424.943020933035, -12623.281791601396, -0.132, 0.96, 0.246, 192.0, 0.0, 0.0, 0.0, 0.0, 0.0, 0.0, 0.0, 0.0, 0.0, 1.6814211818065267E9, 0.0, 2023-04-13 17:26:21.806
253.0, -8835.55517620506, 9949.364954157467, -17410.86899171698, -5889.952884906875, 22762.591870140062, -47290.30099991572, -10400.266695054377, -12585.954378361033, -0.132, 0.96, 0.246, 192.0, 0.0, 0.0, 0.0, 0.0, 0.0, 0.0, 0.0, 0.0, 0.0, 1.681421181806546E9, 0.0, 2023-04-13 17:26:21.806
254.0, -8817.450263196262, 9961.121971740959, -17381.52115124716, -5782.217476632295, 22636.818604090047, -47266.58579904864, -10380.977139589446, -12583.898017871144, -0.132, 0.96, 0.246, 192.0, 0.0, 0.0, 0.0, 0.0, 0.0, 0.0, 0.0, 0.0, 0.0, 1.6814211818065653E9, 0.0, 2023-04-13 17:26:21.806
255.0, -8785.017881991611, 9993.777870390162, -17382.482276258743, -5380.534277025971, 22899.406897950998, -47276.08529044215, -10402.233648566444, -12627.640381770181, -0.132, 0.96, 0.246, 192.0, 0.0, 0.0, 0.0, 0.0, 0.0, 0.0, 0.0, 0.0, 0.0, 1.6814211818065844E9, 0.0, 2023-04-13 17:26:21.806
0.0, -8801.98285603319, 9985.775945875163, -17411.71835800628, -5490.795432424001, 23020.486297665393, -47299.71108433141, -10421.903183687113, -12628.31093410384, -0.132, 0.96, 0.246, 192.0, 0.0, 0.0, 0.0, 0.0, 0.0, 0.0, 0.0, 0.0, 0.0, 1.6814211818066113E9, 0.0, 2023-04-13 17:26:21.806
1.0, -8824.915745844335, 9959.646756606908, -17414.44527082983, -5851.820808866121, 22809.17290558492, -47293.20672669491, -10412.068416126778, -12596.191477321563, -0.132, 0.96, 0.246, 192.0, 0.0, 0.0, 0.0, 0.0, 0.0, 0.0, 0.0, 0.0, 0.0, 1.6814211818066301E9, 0.0, 2023-04-13 17:26:21.806
2.0, -8805.961466546234, 9970.174428245358, -17384.113953603977, -5850.189131520883, 22616.94790326928, -47267.14459266002, -10391.951846117003, -12581.215808536508, -0.134, 0.9580000000000001, 0.248, 192.0, 251.0, 208.0, 29.0, 240.0, 7.0, 192.0, 0.0, 0.0, 0.0, 1.6814211818066497E9, 0.0, 2023-04-13 17:26:21.806
3.0, -8769.59517831745, 10003.009140850203, -17379.73301169074, -5419.448664122661, 22830.921152939936, -47271.34672061762, -10410.749663203915, -12615.391625808672, -0.134, 0.9580000000000001, 0.248, 192.0, 0.0, 0.0, 0.0, 0.0, 0.0, 0.0, 0.0, 0.0, 0.0, 1.681421181806671E9, 0.0, 2023-04-13 17:26:21.806
4.0, -8772.143277185354, 10005.065501340092, -17406.242180614732, -5431.540957872982, 23007.0305475033, -47296.93946801895, -10415.73410221745, -12623.907640446145, -0.134, 0.9580000000000001, 0.248, 192.0, 0.0, 0.0, 0.0, 0.0, 0.0, 0.0, 0.0, 0.0, 0.0, 1.6814211818067038E9, 0.0, 2023-04-13 17:26:21.806
5.0, -8804.888582812378, 9976.745841115218, -17416.009892941704, -5789.481793580269, 22849.942487471402, -47297.721779074884, -10408.894468414124, -12593.799840664846, -0.134, 0.9580000000000001, 0.248, 192.0, 0.0, 0.0, 0.0, 0.0, 0.0, 0.0, 0.0, 0.0, 0.0, 1.6814211818067465E9, 0.0, 2023-04-13 17:26:21.806
6.0, -8795.813774563525, 9984.278378996656, -17386.594997238517, -5897.999512910786, 22604.565036841042, -47268.55275256071, -10393.270599039864, -12568.162389774609, -0.134, 0.9580000000000001, 0.248, 192.0, 0.0, 0.0, 0.0, 0.0, 0.0, 0.0, 0.0, 0.0, 0.0, 1.681421181806834E9, 0.0, 2023-04-13 17:26:21.806
7.0, -8754.977137443679, 10024.55622250512, -17366.277261528645, -5470.500048458583, 22774.147722023456, -47254.471153553866, -10388.330863515243, -12595.856201154733, -0.134, 0.9580000000000001, 0.248, 192.0, 0.0, 0.0, 0.0, 0.0, 0.0, 0.0, 0.0, 0.0, 0.0, 1.681421181806857E9, 0.0, 2023-04-13 17:26:21.806
8.0, -8748.852759462925, 10029.98769640776, -17388.807819939593, -5375.8851141792675, 23011.65735860555, -47275.37003461958, -10408.358026547197, -12616.330399075796, -0.134, 0.9580000000000001, 0.248, 192.0, 0.0, 0.0, 0.0, 0.0, 0.0, 0.0, 0.0, 0.0, 0.0, 1.6814211818068907E9, 0.0, 2023-04-13 17:26:21.806
9.0, -8785.353158158441, 9995.700120413318, -17412.97005569578, -5730.048505073608, 22891.67319436946, -47291.64210458304, -10415.175308606065, -12605.735672203979, -0.134, 0.9580000000000001, 0.248, 192.0, 0.0, 0.0, 0.0, 0.0, 0.0, 0.0, 0.0, 0.0, 0.0, 1.6814211818069115E9, 0.0, 2023-04-13 17:26:21.806
10.0, -8794.763242574125, 9988.145230787424, -17397.748517721717, -5935.483388362335, 22613.28221717861, -47272.97839796286, -10396.891581641625, -12582.914541115111, -0.134, 0.9580000000000001, 0.248, 192.0, 0.0, 0.0, 0.0, 0.0, 0.0, 0.0, 0.0, 0.0, 0.0, 1.6814211818069305E9, 0.0, 2023-04-13 17:26:21.806
11.0, -8762.509675325116, 10018.74476894674, -17374.56975872156, -5554.05086923252, 22719.430651596864, -47254.09117389812, -10394.544648473817, -12597.309064544328, -0.134, 0.9580000000000001, 0.248, 192.0, 0.0, 0.0, 0.0, 0.0, 0.0, 0.0, 0.0, 0.0, 0.0, 1.68142118180695E9, 0.0, 2023-04-13 17:26:21.806
12.0, -8753.88190196537, 10025.830271939072, -17398.463773544285, -5364.284558806963, 22983.851788503147, -47280.26506665529, -10419.01980865238, -12626.187518380586, -0.13, 0.96, 0.25, 192.0, 251.0, 240.0, 30.0, 0.0, 7.0, 208.0, 0.0, 0.0, 0.0, 1.6814211818069692E9, 0.0, 2023-04-13 17:26:21.806
13.0, -8780.9722162452, 10001.26570478269, -17419.87674473247, -5669.654091555369, 22930.811098910704, -47298.772311064284, -10425.34535233323, -12619.481995043994, -0.13, 0.96, 0.25, 192.0, 0.0, 0.0, 0.0, 0.0, 0.0, 0.0, 0.0, 0.0, 0.0, 1.6814211818069897E9, 0.0, 2023-04-13 17:26:21.806
14.0, -8783.78853604657, 9998.002350092214, -17399.24608460022, -5938.0985424636065, 22653.62711592044, -47279.50510734381, -10397.897410142114, -12583.026299837387, -0.13, 0.96, 0.25, 192.0, 0.0, 0.0, 0.0, 0.0, 0.0, 0.0, 0.0, 0.0, 0.0, 1.6814211818070087E9, 0.0, 2023-04-13 17:26:21.807
15.0, -8749.411553074307, 10029.227737096278, -17370.68055518634, -5637.713448728735, 22664.53476721463, -47260.55082804571, -10388.219104792966, -12595.006834865431, -0.13, 0.96, 0.25, 192.0, 0.0, 0.0, 0.0, 0.0, 0.0, 0.0, 0.0, 0.0, 0.0, 1.681421181807028E9, 0.0, 2023-04-13 17:26:21.807
16.0, -8725.91986965178, 10042.392914580454, -17380.783543680136, -5349.018317343988, 22943.864517672602, -47271.81610725119, -10413.431872538553, -12623.728826490502, -0.13, 0.96, 0.25, 192.0, 0.0, 0.0, 0.0, 0.0, 0.0, 0.0, 0.0, 0.0, 0.0, 1.681421181807047E9, 0.0, 2023-04-13 17:26:21.807
17.0, -8757.324070611487, 10010.474623498276, -17408.43265157135, -5596.765052886612, 22956.001514911834, -47291.88797377205, -10429.391018079641, -12621.44894855606, -0.13, 0.96, 0.25, 192.0, 0.0, 0.0, 0.0, 0.0, 0.0, 0.0, 0.0, 0.0, 0.0, 1.6814211818070664E9, 0.0, 2023-04-13 17:26:21.807
18.0, -8773.59614057495, 9998.404681492411, -17399.938988678336, -5926.766208024766, 22685.67951746935, -47276.37586312007, -10403.932381145047, -12586.043785338854, -0.13, 0.96, 0.25, 192.0, 0.0, 0.0, 0.0, 0.0, 0.0, 0.0, 0.0, 0.0, 0.0, 1.6814211818070855E9, 0.0, 2023-04-13 17:26:21.807
19.0, -8747.243433862142, 10019.661190469407, -17366.456075484286, -5720.347847980005, 22616.14324046889, -47244.43522029343, -10379.479572710941, -12578.980634090976, -0.13, 0.96, 0.25, 192.0, 0.0, 0.0, 0.0, 0.0, 0.0, 0.0, 0.0, 0.0, 0.0, 1.6814211818071043E9, 0.0, 2023-04-13 17:26:21.807
20.0, -8734.212366844698, 10036.045019155148, -17385.72327920476, -5361.49059075005, 22897.216426994375, -47265.37880484806, -10415.175308606065, -12622.588887523281, -0.13, 0.96, 0.25, 192.0, 0.0, 0.0, 0.0, 0.0, 0.0, 0.0, 0.0, 0.0, 0.0, 1.6814211818071237E9, 0.0, 2023-04-13 17:26:21.807
21.0, -8760.609777046417, 10017.068388112591, -17419.20619239881, -5540.282194648051, 22983.807085014236, -47294.34666566213, -10432.810834981303, -12629.584983537792, -0.13, 0.96, 0.25, 192.0, 0.0, 0.0, 0.0, 0.0, 0.0, 0.0, 0.0, 0.0, 0.0, 1.6814211818071425E9, 0.0, 2023-04-13 17:26:21.807
22.0, -8778.669986566305, 10003.16560306139, -17410.15373589441, -5898.401844310981, 22734.272209915187, -47280.91326724449, -10413.722445216472, -12591.162334819119, -0.128, 0.9580000000000001, 0.248, 192.0, 252.0, 0.0, 29.0, 240.0, 7.0, 192.0, 0.0, 0.0, 0.0, 1.681421181807191E9, 0.0, 2023-04-13 17:26:21.807
23.0, -8757.1676084003, 10021.918716659393, -17377.654299456393, -5795.7179302833, 22603.067469962534, -47256.08047915465, -10402.926552644558, -12589.083622584776, -0.128, 0.9580000000000001, 0.248, 192.0, 0.0, 0.0, 0.0, 0.0, 0.0, 0.0, 0.0, 0.0, 0.0, 1.6814211818072112E9, 0.0, 2023-04-13 17:26:21.807
24.0, -8718.610849214894, 10056.675679287397, -17370.85936914198, -5385.853992206335, 22851.14948167199, -47255.901665199, -10406.100500357212, -12614.698721730558, -0.128, 0.9580000000000001, 0.248, 192.0, 0.0, 0.0, 0.0, 0.0, 0.0, 0.0, 0.0, 0.0, 0.0, 1.6814211818072305E9, 0.0, 2023-04-13 17:26:21.807
25.0, -8735.754637212114, 10040.872995957494, -17407.315064348586, -5483.441708498205, 22977.280375633287, -47288.40110163702, -10428.58635527925, -12630.16612889363, -0.128, 0.9580000000000001, 0.248, 192.0, 0.0, 0.0, 0.0, 0.0, 0.0, 0.0, 0.0, 0.0, 0.0, 1.6814211818072495E9, 0.0, 2023-04-13 17:26:21.807
26.0, -8759.916872968302, 10017.157795090414, -17406.82332597057, -5851.06084955464, 22772.73956212277, -47283.193145178935, -10409.699131214516, -12599.901866901144, -0.128, 0.9580000000000001, 0.248, 192.0, 0.0, 0.0, 0.0, 0.0, 0.0, 0.0, 0.0, 0.0, 0.0, 1.6814211818072686E9, 0.0, 2023-04-13 17:26:21.807
27.0, -8742.236643104154, 10030.434731296866, -17371.10523833099, -5860.895617114976, 22576.580652782995, -47247.98914766183, -10388.979064104446, -12579.15944804662, -0.128, 0.9580000000000001, 0.248, 192.0, 0.0, 0.0, 0.0, 0.0, 0.0, 0.0, 0.0, 0.0, 0.0, 1.6814211818072877E9, 0.0, 2023-04-13 17:26:21.807
28.0, -8712.44176774523, 10056.988603709771, -17365.316136517064, -5428.054085737955, 22802.75795492625, -47250.201970362905, -10405.385244534642, -12615.056349641842, -0.128, 0.9580000000000001, 0.248, 192.0, 0.0, 0.0, 0.0, 0.0, 0.0, 0.0, 0.0, 0.0, 0.0, 1.6814211818073068E9, 0.0, 2023-04-13 17:26:21.807
29.0, -8725.495186507129, 10050.193673395357, -17399.40254681141, -5426.154187459253, 23002.873123034613, -47281.248543411326, -10427.1111401452, -12630.389646338183, -0.128, 0.9580000000000001, 0.248, 192.0, 0.0, 0.0, 0.0, 0.0, 0.0, 0.0, 0.0, 0.0, 0.0, 1.6814211818073258E9, 0.0, 2023-04-13 17:26:21.807
30.0, -8755.40182058833, 10024.288001571656, -17407.44917481532, -5789.325331369082, 22843.683999023917, -47279.16983117698, -10415.82350919527, -12596.772622677401, -0.128, 0.9580000000000001, 0.248, 192.0, 0.0, 0.0, 0.0, 0.0, 0.0, 0.0, 0.0, 0.0, 0.0, 1.681421181807345E9, 0.0, 2023-04-13 17:26:21.807
31.0, -8754.530102554572, 10020.845832925539, -17384.717450704273, -5909.667123516456, 22594.81967625853, -47255.2534646098, -10398.97029387597, -12582.333395759273, -0.128, 0.9580000000000001, 0.248, 192.0, 0.0, 0.0, 0.0, 0.0, 0.0, 0.0, 0.0, 0.0, 0.0, 1.6814211818073637E9, 0.0, 2023-04-13 17:26:21.807
32.0, -8721.941259138735, 10051.400667595944, -17369.227691796743, -5492.829441169434, 22761.966021295313, -47245.19517960491, -10405.362892790186, -12613.8270036968, -0.128, 0.966, 0.25, 192.0, 252.0, 0.0, 30.0, 48.0, 7.0, 208.0, 0.0, 0.0, 0.0, 1.6814211818073826E9, 0.0, 2023-04-13 17:26:21.807
33.0, -8721.53892773854, 10057.525045576698, -17395.356881065, -5379.975483414589, 23011.478544649905, -47269.08919442764, -10437.750570505927, -12639.352695864762, -0.128, 0.966, 0.25, 192.0, 0.0, 0.0, 0.0, 0.0, 0.0, 0.0, 0.0, 0.0, 0.0, 1.6814211818074028E9, 0.0, 2023-04-13 17:26:21.807
34.0, -8754.708916510215, 10024.846795183039, -17407.806802726605, -5722.694781147812, 22899.58571190664, -47273.06780494068, -10430.82152972478, -12614.229335096996, -0.128, 0.966, 0.25, 192.0, 0.0, 0.0, 0.0, 0.0, 0.0, 0.0, 0.0, 0.0, 0.0, 1.6814211818074217E9, 0.0, 2023-04-13 17:26:21.807
35.0, -8766.935320727269, 10005.378425762467, -17392.115878118977, -5937.6515075745, 22619.67481609283, -47254.314691342675, -10408.358026547197, -12592.97282612, -0.128, 0.966, 0.25, 192.0, 0.0, 0.0, 0.0, 0.0, 0.0, 0.0, 0.0, 0.0, 0.0, 1.6814211818074408E9, 0.0, 2023-04-13 17:26:21.807
36.0, -8727.708009208203, 10034.949783676837, -17364.086790572022, -5570.144125240341, 22694.24023559573, -47232.34292654311, -10402.837145666737, -12606.853259426745, -0.128, 0.966, 0.25, 192.0, 0.0, 0.0, 0.0, 0.0, 0.0, 0.0, 0.0, 0.0, 0.0, 1.6814211818074596E9, 0.0, 2023-04-13 17:26:21.807
37.0, -8721.047189360523, 10045.499807059743, -17391.311215318587, -5364.709241951614, 22958.84018645766, -47259.008557678295, -10436.87885247217, -12636.625783041214, -0.128, 0.966, 0.25, 192.0, 0.0, 0.0, 0.0, 0.0, 0.0, 0.0, 0.0, 0.0, 0.0, 1.6814211818074963E9, 0.0, 2023-04-13 17:26:21.807
38.0, -8748.428076318274, 10022.209289337312, -17410.198439383323, -5661.652167040368, 22921.06573832819, -47269.424470594466, -10426.708808745005, -12612.128271118198, -0.128, 0.966, 0.25, 192.0, 0.0, 0.0, 0.0, 0.0, 0.0, 0.0, 0.0, 0.0, 0.0, 1.6814211818075159E9, 0.0, 2023-04-13 17:26:21.807
39.0, -8761.079163679977, 10008.395911263933, -17392.92054091937, -5941.5630628541785, 22645.088749538514, -47247.09507788361, -10392.220067050466, -12569.10116304173, -0.128, 0.966, 0.25, 192.0, 0.0, 0.0, 0.0, 0.0, 0.0, 0.0, 0.0, 0.0, 0.0, 1.6814211818075347E9, 0.0, 2023-04-13 17:26:21.807
40.0, -8738.77212271358, 10029.3171440741, -17372.647508698406, -5653.359669847449, 22655.839938621517, -47233.39345853251, -10395.05873859629, -12591.028224352387, -0.128, 0.966, 0.25, 192.0, 0.0, 0.0, 0.0, 0.0, 0.0, 0.0, 0.0, 0.0, 0.0, 1.6814211818075535E9, 0.0, 2023-04-13 17:26:21.807
41.0, -8727.842119674935, 10044.851606470538, -17397.234427599244, -5366.251512319031, 22938.321285047685, -47261.087269912634, -10431.648544269627, -12632.73657950599, -0.128, 0.966, 0.25, 192.0, 0.0, 0.0, 0.0, 0.0, 0.0, 0.0, 0.0, 0.0, 0.0, 1.6814211818075726E9, 0.0, 2023-04-13 17:26:21.807
42.0, -8748.562186785006, 10033.206347609324, -17418.55799180961, -5604.856384379433, 22953.20754685492, -47274.92299973047, -10442.869119986191, -12619.146718877164, -0.134, 0.966, 0.248, 192.0, 251.0, 208.0, 30.0, 48.0, 7.0, 192.0, 0.0, 0.0, 0.0, 1.681421181807592E9, 0.0, 2023-04-13 17:26:21.807
43.0, -8763.470800336696, 10022.388103292955, -17407.11389864849, -5933.091751705618, 22686.953566903303, -47259.34383384512, -10419.980933663957, -12585.484991727471, -0.134, 0.966, 0.248, 192.0, 0.0, 0.0, 0.0, 0.0, 0.0, 0.0, 0.0, 0.0, 0.0, 1.6814211818076155E9, 0.0, 2023-04-13 17:26:21.807
44.0, -8737.878052935368, 10036.067370899604, -17373.362764520974, -5738.184540055339, 22612.119926466934, -47233.37110678806, -10399.618494465172, -12589.038919095865, -0.134, 0.966, 0.248, 192.0, 0.0, 0.0, 0.0, 0.0, 0.0, 0.0, 0.0, 0.0, 0.0, 1.6814211818076348E9, 0.0, 2023-04-13 17:26:21.807
45.0, -8722.857680661402, 10048.807865239129, -17387.66788097237, -5375.68394847917, 22893.170761247966, -47252.861827953086, -10424.652448255116, -12630.702570760557, -0.134, 0.966, 0.248, 192.0, 0.0, 0.0, 0.0, 0.0, 0.0, 0.0, 0.0, 0.0, 0.0, 1.681421181807654E9, 0.0, 2023-04-13 17:26:21.807
46.0, -8742.035477404055, 10039.107208145524, -17413.282980118154, -5547.747677296124, 22963.958735937922, -47273.09015668514, -10435.78361699386, -12622.946515434565, -0.134, 0.966, 0.248, 192.0, 0.0, 0.0, 0.0, 0.0, 0.0, 0.0, 0.0, 0.0, 0.0, 1.681421181807673E9, 0.0, 2023-04-13 17:26:21.807
47.0, -8766.935320727269, 10016.576649734576, -17408.566762038085, -5897.775995466232, 22733.244029670244, -47262.02604317976, -10420.092692386233, -12587.451945239538, -0.134, 0.966, 0.248, 192.0, 0.0, 0.0, 0.0, 0.0, 0.0, 0.0, 0.0, 0.0, 0.0, 1.681421181807727E9, 0.0, 2023-04-13 17:26:21.807
48.0, -8753.390163587352, 10024.288001571656, -17378.905997145892, -5814.605154348034, 22593.165647168833, -47235.807446933686, -10401.697206699517, -12580.947587603045, -0.134, 0.966, 0.248, 192.0, 0.0, 0.0, 0.0, 0.0, 0.0, 0.0, 0.0, 0.0, 0.0, 1.681421181807749E9, 0.0, 2023-04-13 17:26:21.807
49.0, -8729.764369698092, 10047.198539638346, -17381.252930313698, -5403.668332537214, 22845.18156590242, -47242.66943248146, -10419.802119708314, -12617.336227576283, -0.134, 0.966, 0.248, 192.0, 0.0, 0.0, 0.0, 0.0, 0.0, 0.0, 0.0, 0.0, 0.0, 1.6814211818077683E9, 0.0, 2023-04-13 17:26:21.807
50.0, -8746.59523327294, 10036.000315666237, -17412.612427784494, -5481.3629962638615, 22999.341547410673, -47267.97160720487, -10436.834148983258, -12624.868765457722, -0.134, 0.966, 0.248, 192.0, 0.0, 0.0, 0.0, 0.0, 0.0, 0.0, 0.0, 0.0, 0.0, 1.6814211818077877E9, 0.0, 2023-04-13 17:26:21.807
51.0, -8766.0188992046, 10013.067425855092, -17410.421956827875, -5848.088067542085, 22795.627748445004, -47259.6567582675, -10423.043122654333, -12591.162334819119, -0.134, 0.966, 0.248, 192.0, 0.0, 0.0, 0.0, 0.0, 0.0, 0.0, 0.0, 0.0, 0.0, 1.6814211818078065E9, 0.0, 2023-04-13 17:26:21.807
52.0, -8755.714745010704, 10016.93427764586, -17382.81755242557, -5878.7546609347655, 22589.52231282262, -47234.48869401082, -10406.324017801764, -12578.265378268406, -0.132, 0.97, 0.248, 192.0, 251.0, 224.0, 30.0, 80.0, 7.0, 192.0, 0.0, 0.0, 0.0, 1.6814211818078256E9, 0.0, 2023-04-13 17:26:21.807
53.0, -8725.718703951681, 10043.488150058765, -17374.502703488197, -5455.211455251152, 22794.51016122224, -47234.51104575527, -10413.230706838454, -12607.322646060305, -0.132, 0.97, 0.248, 192.0, 0.0, 0.0, 0.0, 0.0, 0.0, 0.0, 0.0, 0.0, 0.0, 1.681421181807871E9, 0.0, 2023-04-13 17:26:21.807
54.0, -8735.754637212114, 10038.637821511964, -17407.896209704424, -5443.812065578945, 22987.293957149264, -47265.714081014885, -10434.487215815452, -12624.488785801983, -0.132, 0.97, 0.248, 192.0, 0.0, 0.0, 0.0, 0.0, 0.0, 0.0, 0.0, 0.0, 0.0, 1.6814211818078907E9, 0.0, 2023-04-13 17:26:21.807
55.0, -8764.58838755946, 10012.307466543612, -17416.948666208824, -5803.943372242853, 22835.972647186834, -47269.31271187219, -10419.064512141289, -12598.359596533728, -0.132, 0.97, 0.248, 192.0, 0.0, 0.0, 0.0, 0.0, 0.0, 0.0, 0.0, 0.0, 0.0, 1.6814211818079095E9, 0.0, 2023-04-13 17:26:21.807
56.0, -8762.710841025215, 10012.687446199352, -17390.104221118, -5938.41146688598, 22590.751658767662, -47241.84241793662, -10390.521334471863, -12567.625947907682, -0.132, 0.97, 0.248, 192.0, 0.0, 0.0, 0.0, 0.0, 0.0, 0.0, 0.0, 0.0, 0.0, 1.6814211818079288E9, 0.0, 2023-04-13 17:26:21.807
57.0, -8730.63608773185, 10040.649478512942, -17374.39094476592, -5530.626241043358, 22743.41407339741, -47234.28752831072, -10401.093709599223, -12596.370291277206, -0.132, 0.97, 0.248, 192.0, 0.0, 0.0, 0.0, 0.0, 0.0, 0.0, 0.0, 0.0, 0.0, 1.6814211818079476E9, 0.0, 2023-04-13 17:26:21.807
58.0, -8732.848910432926, 10043.488150058765, -17404.72226199177, -5410.284448895985, 22987.98686122738, -47266.31757811518, -10434.286050115354, -12626.589849780781, -0.132, 0.97, 0.248, 192.0, 0.0, 0.0, 0.0, 0.0, 0.0, 0.0, 0.0, 0.0, 0.0, 1.6814211818079667E9, 0.0, 2023-04-13 17:26:21.807
59.0, -8766.73415502717, 10020.242335825245, -17421.106090677513, -5741.447894745815, 22896.165895004975, -47272.44195609593, -10433.59314603724, -12607.25559082694, -0.132, 0.97, 0.248, 192.0, 0.0, 0.0, 0.0, 0.0, 0.0, 0.0, 0.0, 0.0, 0.0, 1.6814211818079855E9, 0.0, 2023-04-13 17:26:21.807
60.0, -8771.83035276298, 10012.709797943808, -17396.899151432415, -5964.920635809975, 22620.27831319312, -47242.512970270276, -10402.300703799809, -12567.0671542963, -0.132, 0.97, 0.248, 192.0, 0.0, 0.0, 0.0, 0.0, 0.0, 0.0, 0.0, 0.0, 0.0, 1.6814211818080044E9, 0.0, 2023-04-13 17:26:21.808
61.0, -8750.68560250826, 10025.249126583234, -17382.77284893666, -5612.388922260871, 22699.336433331544, -47231.56061548718, -10410.39203529263, -12592.481087741982, -0.132, 0.97, 0.248, 192.0, 0.0, 0.0, 0.0, 0.0, 0.0, 0.0, 0.0, 0.0, 0.0, 1.6814211818080237E9, 0.0, 2023-04-13 17:26:21.808
62.0, -8738.77212271358, 10039.710705245818, -17403.40350906891, -5393.520640554505, 22971.848901730646, -47252.146572130514, -10437.728218761471, -12621.49365204497, -0.13, 0.96, 0.25, 192.0, 251.0, 240.0, 30.0, 0.0, 7.0, 208.0, 0.0, 0.0, 0.0, 1.6814211818080423E9, 0.0, 2023-04-13 17:26:21.808
63.0, -8767.136486427366, 10017.35896079051, -17422.938933722846, -5680.025300982631, 22925.804308152714, -47261.40019433501, -10437.92938446157, -12604.34986404775, -0.13, 0.96, 0.25, 192.0, 0.0, 0.0, 0.0, 0.0, 0.0, 0.0, 0.0, 0.0, 0.0, 1.6814211818080623E9, 0.0, 2023-04-13 17:26:21.808
64.0, -8777.775916788092, 10007.83711765255, -17406.242180614732, -5969.3239294676705, 22643.166499515355, -47243.74231621532, -10406.34636954622, -12576.410183478616, -0.13, 0.96, 0.25, 192.0, 0.0, 0.0, 0.0, 0.0, 0.0, 0.0, 0.0, 0.0, 0.0, 1.6814211818080857E9, 0.0, 2023-04-13 17:26:21.808
65.0, -8742.236643104154, 10033.563975520608, -17376.044973855613, -5690.552972621081, 22639.545516913597, -47219.714190925864, -10397.606837464195, -12586.244951038952, -0.13, 0.96, 0.25, 192.0, 0.0, 0.0, 0.0, 0.0, 0.0, 0.0, 0.0, 0.0, 0.0, 1.681421181808105E9, 0.0, 2023-04-13 17:26:21.808
66.0, -8724.265840562086, 10047.667926271908, -17391.44532578532, -5387.910352696223, 22916.975369092866, -47238.26613882377, -10423.847785454725, -12614.475204286004, -0.13, 0.96, 0.25, 192.0, 0.0, 0.0, 0.0, 0.0, 0.0, 0.0, 0.0, 0.0, 0.0, 1.681421181808124E9, 0.0, 2023-04-13 17:26:21.808
67.0, -8756.228835133175, 10023.282173071168, -17422.44719534483, -5622.849538665955, 22930.00643611031, -47258.33800534463, -10440.67864902957, -12611.100090873253, -0.13, 0.96, 0.25, 192.0, 0.0, 0.0, 0.0, 0.0, 0.0, 0.0, 0.0, 0.0, 0.0, 1.6814211818081431E9, 0.0, 2023-04-13 17:26:21.808
68.0, -8778.133544699376, 10005.132556573459, -17420.4131865994, -5954.683536849444, 22671.374401017954, -47247.92209242846, -10422.886660443148, -12584.188590549064, -0.13, 0.96, 0.25, 192.0, 0.0, 0.0, 0.0, 0.0, 0.0, 0.0, 0.0, 0.0, 0.0, 1.6814211818081808E9, 0.0, 2023-04-13 17:26:21.808
69.0, -8754.30658511002, 10023.84096668255, -17392.0041193967, -5781.636331276457, 22583.442638330776, -47229.05722010818, -10415.599991750716, -12585.06030858282, -0.13, 0.96, 0.25, 192.0, 0.0, 0.0, 0.0, 0.0, 0.0, 0.0, 0.0, 0.0, 0.0, 1.6814211818082E9, 0.0, 2023-04-13 17:26:21.808
70.0, -8726.702180707714, 10049.299603617144, -17395.513343276187, -5402.215469147619, 22852.065903194656, -47244.524627271254, -10438.689343773049, -12618.722035732513, -0.13, 0.96, 0.25, 192.0, 0.0, 0.0, 0.0, 0.0, 0.0, 0.0, 0.0, 0.0, 0.0, 1.6814211818082192E9, 0.0, 2023-04-13 17:26:21.808
71.0, -8750.976175186179, 10029.630068496475, -17423.87770698997, -5562.43277340326, 22937.00253212482, -47277.180525920456, -10445.908957232114, -12625.8298904693, -0.13, 0.96, 0.25, 192.0, 0.0, 0.0, 0.0, 0.0, 0.0, 0.0, 0.0, 0.0, 0.0, 1.6814211818082383E9, 0.0, 2023-04-13 17:26:21.808
72.0, -8778.938207499768, 10000.461041982298, -17424.458852345808, -5923.256984145282, 22707.1595438909, -47272.9560462184, -10422.193756365032, -12596.794974421857, -0.136, 0.966, 0.248, 192.0, 251.0, 192.0, 30.0, 48.0, 7.0, 192.0, 0.0, 0.0, 0.0, 1.681421181808257E9, 0.0, 2023-04-13 17:26:21.808
73.0, -8759.11221016791, 10012.106300843514, -17392.272340330164, -5853.720707144822, 22553.111321104923, -47242.33415631463, -10401.339578788231, -12587.071965583798, -0.136, 0.966, 0.248, 192.0, 0.0, 0.0, 0.0, 0.0, 0.0, 0.0, 0.0, 0.0, 0.0, 1.6814211818082771E9, 0.0, 2023-04-13 17:26:21.808
74.0, -8733.58651799995, 10034.636859254464, -17395.1557153649, -5427.048257237466, 22819.09708012308, -47250.22432210736, -10437.124721661177, -12629.160300393141, -0.136, 0.966, 0.248, 192.0, 0.0, 0.0, 0.0, 0.0, 0.0, 0.0, 0.0, 0.0, 0.0, 1.6814211818082964E9, 0.0, 2023-04-13 17:26:21.808
75.0, -8747.73517224016, 10027.283135328667, -17424.68236979036, -5497.053920871487, 22958.68372424647, -47274.92299973047, -10454.0673439583, -12632.468358572527, -0.136, 0.966, 0.248, 192.0, 0.0, 0.0, 0.0, 0.0, 0.0, 0.0, 0.0, 0.0, 0.0, 1.6814211818083155E9, 0.0, 2023-04-13 17:26:21.808
76.0, -8774.11023069742, 10008.150042074925, -17424.05652094561, -5856.246454268272, 22751.237183956764, -47267.27870312676, -10429.033390168357, -12593.911599387122, -0.136, 0.966, 0.248, 192.0, 0.0, 0.0, 0.0, 0.0, 0.0, 0.0, 0.0, 0.0, 0.0, 1.6814211818083344E9, 0.0, 2023-04-13 17:26:21.808
77.0, -8768.9693294727, 10011.50280374322, -17401.414203812386, -5889.617608740045, 22557.112283362425, -47248.77145871776, -10415.667046984083, -12581.841657381256, -0.136, 0.966, 0.248, 192.0, 0.0, 0.0, 0.0, 0.0, 0.0, 0.0, 0.0, 0.0, 0.0, 1.6814211818083534E9, 0.0, 2023-04-13 17:26:21.808
78.0, -8739.509730280606, 10035.575632521586, -17391.981767652247, -5462.811048365957, 22770.906719077437, -47251.72188898586, -10423.40075056562, -12617.157413620642, -0.136, 0.966, 0.248, 192.0, 0.0, 0.0, 0.0, 0.0, 0.0, 0.0, 0.0, 0.0, 0.0, 1.6814211818083725E9, 0.0, 2023-04-13 17:26:21.808
79.0, -8741.879015192868, 10033.429865053877, -17416.099299919522, -5433.262042196041, 22972.16182615302, -47278.38752012105, -10440.768056007393, -12628.847375970767, -0.136, 0.966, 0.248, 192.0, 0.0, 0.0, 0.0, 0.0, 0.0, 0.0, 0.0, 0.0, 0.0, 1.6814211818083913E9, 0.0, 2023-04-13 17:26:21.808
80.0, -8765.147181170843, 10018.007161379715, -17418.73680576525, -5773.321482339083, 22829.04360640569, -47272.5090113293, -10439.583413551261, -12594.448041254049, -0.136, 0.966, 0.248, 192.0, 0.0, 0.0, 0.0, 0.0, 0.0, 0.0, 0.0, 0.0, 0.0, 1.6814211818084104E9, 0.0, 2023-04-13 17:26:21.808
81.0, -8762.129695669377, 10020.868184669995, -17392.272340330164, -5919.211318398871, 22579.75460049565, -47248.860865695584, -10414.415349294586, -12564.496703683937, -0.136, 0.966, 0.248, 192.0, 0.0, 0.0, 0.0, 0.0, 0.0, 0.0, 0.0, 0.0, 0.0, 1.6814211818084297E9, 0.0, 2023-04-13 17:26:21.808
82.0, -8728.1103406084, 10048.472589072298, -17372.66986044286, -5513.773025724056, 22711.451078826318, -47240.5013132693, -10414.996494650424, -12588.54718071785, -0.134, 0.96, 0.254, 192.0, 251.0, 208.0, 30.0, 0.0, 7.0, 240.0, 0.0, 0.0, 0.0, 1.6814211818084483E9, 0.0, 2023-04-13 17:26:21.808
83.0, -8727.506843508107, 10050.327783862089, -17401.92829393486, -5378.366157813806, 22957.54378527925, -47271.88316248455, -10458.582396338272, -12616.240992097974, -0.134, 0.96, 0.254, 192.0, 0.0, 0.0, 0.0, 0.0, 0.0, 0.0, 0.0, 0.0, 0.0, 1.6814211818084855E9, 0.0, 2023-04-13 17:26:21.808
84.0, -8754.30658511002, 10028.154853362425, -17413.662959773894, -5702.242934971206, 22871.06488598167, -47274.095985185624, -10448.457056100018, -12586.759041161424, -0.134, 0.96, 0.254, 192.0, 0.0, 0.0, 0.0, 0.0, 0.0, 0.0, 0.0, 0.0, 0.0, 1.681421181808505E9, 0.0, 2023-04-13 17:26:21.808
85.0, -8766.197713160243, 10015.615524722996, -17395.49099153173, -5931.772998782754, 22605.883789763902, -47257.041604166225, -10424.048951154822, -12561.523921671382, -0.134, 0.96, 0.254, 192.0, 0.0, 0.0, 0.0, 0.0, 0.0, 0.0, 0.0, 0.0, 0.0, 1.6814211818085368E9, 0.0, 2023-04-13 17:26:21.808
86.0, -8730.68079122076, 10044.89630995945, -17366.701944673296, -5581.029424790076, 22674.52599698615, -47240.7024789694, -10417.008151651402, -12581.081698069776, -0.134, 0.96, 0.254, 192.0, 0.0, 0.0, 0.0, 0.0, 0.0, 0.0, 0.0, 0.0, 0.0, 1.6814211818085594E9, 0.0, 2023-04-13 17:26:21.808
87.0, -8725.182262084754, 10049.768990250706, -17394.93219792035, -5356.260282547508, 22947.999590396834, -47274.252447396815, -10453.061515457812, -12616.35275082025, -0.134, 0.96, 0.254, 192.0, 0.0, 0.0, 0.0, 0.0, 0.0, 0.0, 0.0, 0.0, 0.0, 1.6814211818085785E9, 0.0, 2023-04-13 17:26:21.808
88.0, -8750.842064719447, 10028.356019062521, -17411.941875450837, -5641.289727841584, 22913.19792427992, -47289.29517141524, -10456.570739337294, -12599.678349456592, -0.134, 0.96, 0.254, 192.0, 0.0, 0.0, 0.0, 0.0, 0.0, 0.0, 0.0, 0.0, 0.0, 1.6814211818085976E9, 0.0, 2023-04-13 17:26:21.808
89.0, -8765.21423640421, 10018.118920101992, -17393.367575808476, -5933.650545317, 22641.06543553656, -47269.26800838328, -10424.898317444125, -12560.473389681983, -0.134, 0.96, 0.254, 192.0, 0.0, 0.0, 0.0, 0.0, 0.0, 0.0, 0.0, 0.0, 0.0, 1.6814211818086169E9, 0.0, 2023-04-13 17:26:21.808
90.0, -8742.929547182268, 10037.65434475593, -17367.707773173785, -5670.726975289223, 22619.80892655956, -47246.73744997233, -10415.935267917546, -12568.743535130447, -0.134, 0.96, 0.254, 192.0, 0.0, 0.0, 0.0, 0.0, 0.0, 0.0, 0.0, 0.0, 0.0, 1.6814211818086393E9, 0.0, 2023-04-13 17:26:21.808
91.0, -8729.831424931459, 10052.205330396335, -17391.49002927423, -5354.673308691181, 22910.87334285657, -47272.46430784039, -10454.626137569683, -12612.441195540572, -0.134, 0.96, 0.254, 192.0, 0.0, 0.0, 0.0, 0.0, 0.0, 0.0, 0.0, 0.0, 0.0, 1.6814211818086584E9, 0.0, 2023-04-13 17:26:21.808
92.0, -8757.547588056039, 10025.472644027788, -17422.24602964473, -5578.570732899992, 22945.786767695758, -47298.012351752805, -10475.904998291135, -12615.190460108573, -0.128, 0.9540000000000001, 0.25, 192.0, 252.0, 0.0, 29.0, 208.0, 7.0, 208.0, 0.0, 0.0, 0.0, 1.6814211818086772E9, 0.0, 2023-04-13 17:26:21.808
93.0, -8780.815754034014, 9999.589323948541, -17415.652265030418, -5914.025713685241, 22700.29755834312, -47286.25533416931, -10450.558120078817, -12577.371308490196, -0.128, 0.9540000000000001, 0.25, 192.0, 0.0, 0.0, 0.0, 0.0, 0.0, 0.0, 0.0, 0.0, 0.0, 1.6814211818087168E9, 0.0, 2023-04-13 17:26:21.808
94.0, -8758.508713067617, 10017.627181723974, -17382.996366381212, -5761.966796155786, 22599.89352224988, -47264.797659492215, -10427.513471545395, -12573.303290999329, -0.128, 0.9540000000000001, 0.25, 192.0, 0.0, 0.0, 0.0, 0.0, 0.0, 0.0, 0.0, 0.0, 0.0, 1.6814211818087444E9, 0.0, 2023-04-13 17:26:21.808
95.0, -8732.133654610356, 10042.258804113722, -17385.276244315653, -5370.63245423227, 22880.787894819725, -47272.24079039584, -10438.465826328496, -12601.712358202025, -0.128, 0.9540000000000001, 0.25, 192.0, 0.0, 0.0, 0.0, 0.0, 0.0, 0.0, 0.0, 0.0, 0.0, 1.681421181808764E9, 0.0, 2023-04-13 17:26:21.808
96.0, -8751.646727519837, 10030.635896996964, -17411.91952370638, -5515.494110047115, 22979.247329145353, -47296.09010172965, -10450.334602634264, -12602.897000658155, -0.128, 0.9540000000000001, 0.25, 192.0, 0.0, 0.0, 0.0, 0.0, 0.0, 0.0, 0.0, 0.0, 0.0, 1.6814211818087833E9, 0.0, 2023-04-13 17:26:21.808
97.0, -8782.983873246178, 10004.685521684352, -17415.227581885767, -5879.447565012881, 22750.298410689644, -47290.83744178265, -10433.391980337141, -12567.15656127412, -0.128, 0.9540000000000001, 0.25, 192.0, 0.0, 0.0, 0.0, 0.0, 0.0, 0.0, 0.0, 0.0, 0.0, 1.6814211818088024E9, 0.0, 2023-04-13 17:26:21.808
98.0, -8769.237550406164, 10016.88957415695, -17384.136305348435, -5838.387410448481, 22572.98202192569, -47264.68590076994, -10421.858480198203, -12557.76882860289, -0.128, 0.9540000000000001, 0.25, 192.0, 0.0, 0.0, 0.0, 0.0, 0.0, 0.0, 0.0, 0.0, 0.0, 1.6814211818088212E9, 0.0, 2023-04-13 17:26:21.808
99.0, -8734.368829055886, 10046.259766371222, -17379.956529135292, -5415.291239653974, 22819.298245823175, -47267.23399963784, -10439.426951340074, -12592.97282612, -0.128, 0.9540000000000001, 0.25, 192.0, 0.0, 0.0, 0.0, 0.0, 0.0, 0.0, 0.0, 0.0, 0.0, 1.681421181808866E9, 0.0, 2023-04-13 17:26:21.808
100.0, -8744.695334994238, 10036.60381276653, -17410.466660316786, -5472.668167670747, 22970.194872640954, -47292.08913947215, -10448.188835166555, -12599.9242186456, -0.128, 0.9540000000000001, 0.25, 192.0, 0.0, 0.0, 0.0, 0.0, 0.0, 0.0, 0.0, 0.0, 0.0, 1.6814211818088856E9, 0.0, 2023-04-13 17:26:21.808
101.0, -8774.40080337534, 10012.486280499254, -17417.73097726476, -5835.906366813942, 22785.345945995563, -47290.90449701602, -10439.337544362254, -12569.458790953016, -0.128, 0.9540000000000001, 0.25, 192.0, 0.0, 0.0, 0.0, 0.0, 0.0, 0.0, 0.0, 0.0, 0.0, 1.681421181808905E9, 0.0, 2023-04-13 17:26:21.808
102.0, -8770.757469029126, 10010.74284443174, -17393.524038019663, -5904.570925780646, 22564.398952054853, -47272.86663924058, -10426.552346533817, -12556.517130913393, -0.136, 0.9500000000000001, 0.252, 192.0, 251.0, 192.0, 29.0, 176.0, 7.0, 224.0, 0.0, 0.0, 0.0, 1.6814211818089244E9, 0.0, 2023-04-13 17:26:21.808
103.0, -8743.913023938301, 10029.69712372984, -17382.102296603, -5483.642874198303, 22751.572460123596, -47274.6100753081, -10441.036276940857, -12596.146773832652, -0.136, 0.9500000000000001, 0.252, 192.0, 0.0, 0.0, 0.0, 0.0, 0.0, 0.0, 0.0, 0.0, 0.0, 1.6814211818089445E9, 0.0, 2023-04-13 17:26:21.808
104.0, -8742.77308497108, 10036.045019155148, -17401.369500323475, -5440.414600421739, 22948.848956686135, -47295.17368020698, -10446.065419443301, -12601.511192501926, -0.136, 0.9500000000000001, 0.252, 192.0, 0.0, 0.0, 0.0, 0.0, 0.0, 0.0, 0.0, 0.0, 0.0, 1.6814211818089635E9, 0.0, 2023-04-13 17:26:21.808
105.0, -8777.21712317671, 10008.753539175217, -17414.758195252205, -5784.206781888817, 22809.75405094076, -47301.47687214338, -10442.131512419166, -12571.984538076465, -0.136, 0.9500000000000001, 0.252, 192.0, 0.0, 0.0, 0.0, 0.0, 0.0, 0.0, 0.0, 0.0, 0.0, 1.6814211818089828E9, 0.0, 2023-04-13 17:26:21.808
106.0, -8782.268617423608, 10002.673864683375, -17401.48125904575, -5940.22195818686, 22570.32216433551, -47287.70819755891, -10438.957564706512, -12558.126456514176, -0.136, 0.9500000000000001, 0.252, 192.0, 0.0, 0.0, 0.0, 0.0, 0.0, 0.0, 0.0, 0.0, 0.0, 1.6814211818090022E9, 0.0, 2023-04-13 17:26:21.809
107.0, -8739.621489002882, 10041.141216890957, -17378.503665745695, -5540.706877792702, 22709.774697992172, -47271.34672061762, -10433.079055914766, -12581.215808536508, -0.136, 0.9500000000000001, 0.252, 192.0, 0.0, 0.0, 0.0, 0.0, 0.0, 0.0, 0.0, 0.0, 0.0, 1.6814211822855656E9, 0.0, 2023-04-13 17:26:22.285
108.0, -8742.035477404055, 10042.638783769464, -17411.71835800628, -5404.2941813819625, 22949.78772995326, -47305.79075882325, -10462.806876040326, -12610.988332150977, -0.136, 0.9500000000000001, 0.252, 192.0, 0.0, 0.0, 0.0, 0.0, 0.0, 0.0, 0.0, 0.0, 0.0, 1.6814211822857344E9, 0.0, 2023-04-13 17:26:22.285
109.0, -8778.714690055214, 10011.88278339896, -17435.098282706535, -5723.812368370577, 22870.43903713692, -47318.46419792941, -10471.680518589083, -12585.39558474965, -0.136, 0.9500000000000001, 0.252, 192.0, 0.0, 0.0, 0.0, 0.0, 0.0, 0.0, 0.0, 0.0, 0.0, 1.6814211822857776E9, 0.0, 2023-04-13 17:26:22.285
110.0, -8786.73896631467, 10002.02566409417, -17416.278113875167, -5964.048917776217, 22607.269597920134, -47295.777177307275, -10443.316154875298, -12552.426761678073, -0.136, 0.9500000000000001, 0.252, 192.0, 0.0, 0.0, 0.0, 0.0, 0.0, 0.0, 0.0, 0.0, 0.0, 1.6814211822857983E9, 0.0, 2023-04-13 17:26:22.285
111.0, -8748.606890273915, 10033.765141220707, -17381.476447758254, -5630.717352714223, 22637.444452934797, -47272.5090113293, -10434.375457093174, -12569.190570019553, -0.136, 0.9500000000000001, 0.252, 192.0, 0.0, 0.0, 0.0, 0.0, 0.0, 0.0, 0.0, 0.0, 0.0, 1.681421182285818E9, 0.0, 2023-04-13 17:26:22.285
112.0, -8741.879015192868, 10034.346286576545, -17407.359767837497, -5378.522620024994, 22916.126002803565, -47302.50505238832, -10463.276262673888, -12610.54129726187, -0.134, 0.9580000000000001, 0.248, 192.0, 251.0, 208.0, 29.0, 240.0, 7.0, 192.0, 0.0, 0.0, 0.0, 1.6814211822858377E9, 0.0, 2023-04-13 17:26:22.285
113.0, -8769.21519866171, 10008.373559519478, -17427.230468658265, -5654.767829748133, 22902.357328219096, -47315.80434033923, -10460.102314961234, -12590.290616785362, -0.134, 0.9580000000000001, 0.248, 192.0, 0.0, 0.0, 0.0, 0.0, 0.0, 0.0, 0.0, 0.0, 0.0, 1.6814211822858589E9, 0.0, 2023-04-13 17:26:22.285
114.0, -8785.844896536457, 9992.682634911853, -17415.361692352497, -5956.426972916958, 22635.186926744813, -47301.14159597654, -10447.965317722, -12555.801875090823, -0.134, 0.9580000000000001, 0.248, 192.0, 0.0, 0.0, 0.0, 0.0, 0.0, 0.0, 0.0, 0.0, 0.0, 1.6814211822859163E9, 0.0, 2023-04-13 17:26:22.285
115.0, -8762.979061958678, 10017.224850323779, -17387.690232716828, -5710.781301353133, 22604.989719985693, -47281.226191666865, -10444.791370009349, -12570.82224736479, -0.134, 0.9580000000000001, 0.248, 192.0, 0.0, 0.0, 0.0, 0.0, 0.0, 0.0, 0.0, 0.0, 0.0, 1.681421182285936E9, 0.0, 2023-04-13 17:26:22.285
116.0, -8743.264823349098, 10038.816635467605, -17397.614407254983, -5379.751965970036, 22887.649880367506, -47295.95599126291, -10451.139265434655, -12601.377082035195, -0.134, 0.9580000000000001, 0.248, 192.0, 0.0, 0.0, 0.0, 0.0, 0.0, 0.0, 0.0, 0.0, 0.0, 1.6814211822859552E9, 0.0, 2023-04-13 17:26:22.285
117.0, -8773.126753941388, 10011.547507232131, -17432.863108261005, -5592.764090629112, 22936.533145491263, -47322.755732864825, -10470.428820899586, -12603.96988439201, -0.134, 0.9580000000000001, 0.248, 192.0, 0.0, 0.0, 0.0, 0.0, 0.0, 0.0, 0.0, 0.0, 0.0, 1.6814211822859745E9, 0.0, 2023-04-13 17:26:22.285
118.0, -8793.042158251066, 9993.084966312048, -17427.63280005846, -5938.523225608257, 22687.422953536865, -47308.003581524325, -10459.58822483876, -12570.82224736479, -0.134, 0.9580000000000001, 0.248, 192.0, 0.0, 0.0, 0.0, 0.0, 0.0, 0.0, 0.0, 0.0, 0.0, 1.6814211822859936E9, 0.0, 2023-04-13 17:26:22.285
119.0, -8769.773992273093, 10014.453234011322, -17393.367575808476, -5793.14747967094, 22579.37462083991, -47275.54884857522, -10443.562024064306, -12564.966090317499, -0.134, 0.9580000000000001, 0.248, 192.0, 0.0, 0.0, 0.0, 0.0, 0.0, 0.0, 0.0, 0.0, 0.0, 1.681421182286013E9, 0.0, 2023-04-13 17:26:22.286
120.0, -8748.293965851542, 10039.263670356711, -17399.58136076705, -5394.414710332717, 22855.508071840773, -47282.79081377874, -10463.142152207154, -12598.963093634022, -0.134, 0.9580000000000001, 0.248, 192.0, 0.0, 0.0, 0.0, 0.0, 0.0, 0.0, 0.0, 0.0, 0.0, 1.6814211822860317E9, 0.0, 2023-04-13 17:26:22.286
121.0, -8768.634053305872, 10025.092664372047, -17426.3140471356, -5531.252089888107, 22959.846014958148, -47303.51088088881, -10470.652338344138, -12595.63268371018, -0.134, 0.9580000000000001, 0.248, 192.0, 0.0, 0.0, 0.0, 0.0, 0.0, 0.0, 0.0, 0.0, 0.0, 1.6814211822860508E9, 0.0, 2023-04-13 17:26:22.286
122.0, -8793.668007095815, 10002.942085616838, -17424.97294246828, -5897.328960577126, 22720.056500441613, -47293.340837161646, -10453.597957324739, -12559.735782114958, -0.132, 0.96, 0.252, 192.0, 251.0, 224.0, 30.0, 0.0, 7.0, 224.0, 0.0, 0.0, 0.0, 1.6814211822860725E9, 0.0, 2023-04-13 17:26:22.286
123.0, -8781.709823812225, 10006.07132984058, -17401.771831723672, -5862.773163649222, 22551.256126315133, -47275.03475845275, -10447.339468877253, -12553.320831456283, -0.132, 0.96, 0.252, 192.0, 0.0, 0.0, 0.0, 0.0, 0.0, 0.0, 0.0, 0.0, 0.0, 1.681421182286093E9, 0.0, 2023-04-13 17:26:22.286
124.0, -8748.852759462925, 10029.674771985385, -17398.86610494448, -5440.504007399561, 22779.42273371491, -47276.64408405353, -10465.086753974767, -12586.893151628155, -0.132, 0.96, 0.252, 192.0, 0.0, 0.0, 0.0, 0.0, 0.0, 0.0, 0.0, 0.0, 0.0, 1.681421182286112E9, 0.0, 2023-04-13 17:26:22.286
125.0, -8760.676832279782, 10018.454196268822, -17430.24795415973, -5478.032586340021, 22956.9179364345, -47304.248488455836, -10483.437536172574, -12600.952398890544, -0.132, 0.96, 0.252, 192.0, 0.0, 0.0, 0.0, 0.0, 0.0, 0.0, 0.0, 0.0, 0.0, 1.681421182286131E9, 0.0, 2023-04-13 17:26:22.286
126.0, -8789.689396582771, 9992.950855845316, -17439.54627985314, -5847.328108230604, 22774.818274357116, -47308.67413385798, -10473.312195934319, -12576.72310790099, -0.132, 0.96, 0.252, 192.0, 0.0, 0.0, 0.0, 0.0, 0.0, 0.0, 0.0, 0.0, 0.0, 1.6814211822861497E9, 0.0, 2023-04-13 17:26:22.286
127.0, -8787.387166903874, 9996.281265769156, -17417.842735987037, -5926.453283602391, 22557.112283362425, -47291.95502900542, -10457.665974815605, -12566.553064173826, -0.132, 0.96, 0.252, 192.0, 0.0, 0.0, 0.0, 0.0, 0.0, 0.0, 0.0, 0.0, 0.0, 1.6814211822861693E9, 0.0, 2023-04-13 17:26:22.286
128.0, -8753.770143243091, 10029.27244058519, -17400.45307880081, -5511.247278600607, 22738.83196578407, -47283.483717856856, -10463.388021396164, -12592.458735997527, -0.132, 0.96, 0.252, 192.0, 0.0, 0.0, 0.0, 0.0, 0.0, 0.0, 0.0, 0.0, 0.0, 1.6814211822861955E9, 0.0, 2023-04-13 17:26:22.286
129.0, -8759.559245057017, 10015.79433867864, -17432.237259416255, -5459.435934953205, 22945.07151187319, -47315.491415916855, -10490.768908353915, -12619.817271210823, -0.132, 0.96, 0.252, 192.0, 0.0, 0.0, 0.0, 0.0, 0.0, 0.0, 0.0, 0.0, 0.0, 1.6814211822862346E9, 0.0, 2023-04-13 17:26:22.286
130.0, -8787.342463414963, 9991.185068033346, -17439.434521130865, -5810.201860690339, 22812.816239931137, -47317.436017684464, -10472.999271511946, -12592.168163319608, -0.132, 0.96, 0.252, 192.0, 0.0, 0.0, 0.0, 0.0, 0.0, 0.0, 0.0, 0.0, 0.0, 1.6814211822862542E9, 0.0, 2023-04-13 17:26:22.286
131.0, -8780.055794722533, 9997.756480903206, -17407.225657370767, -5972.341414969136, 22552.41841702681, -47281.60617132261, -10434.151939648622, -12549.498683154427, -0.132, 0.96, 0.252, 192.0, 0.0, 0.0, 0.0, 0.0, 0.0, 0.0, 0.0, 0.0, 0.0, 1.6814211822862732E9, 0.0, 2023-04-13 17:26:22.286
132.0, -8748.226910618176, 10023.282173071168, -17393.613444997485, -5578.034291033065, 22682.52792150115, -47273.42543285197, -10448.635870055661, -12576.365479989707, -0.136, 0.9580000000000001, 0.248, 192.0, 251.0, 192.0, 29.0, 240.0, 7.0, 192.0, 0.0, 0.0, 0.0, 1.6814211822862923E9, 0.0, 2023-04-13 17:26:22.286
133.0, -8747.712820495704, 10023.371580048988, -17425.464680846297, -5425.997725248066, 22930.699340188425, -47303.86850880009, -10492.110013021233, -12612.26238158493, -0.136, 0.9580000000000001, 0.248, 192.0, 0.0, 0.0, 0.0, 0.0, 0.0, 0.0, 0.0, 0.0, 0.0, 1.6814211822863128E9, 0.0, 2023-04-13 17:26:22.286
134.0, -8779.295835411052, 9995.16367854639, -17444.30720142212, -5742.744295924223, 22853.33995262861, -47313.85973857161, -10490.903018820647, -12597.957265133533, -0.136, 0.9580000000000001, 0.248, 192.0, 0.0, 0.0, 0.0, 0.0, 0.0, 0.0, 0.0, 0.0, 0.0, 1.6814211822863317E9, 0.0, 2023-04-13 17:26:22.286
135.0, -8788.638864593371, 9986.960588331292, -17429.86797450399, -5989.351092499625, 22583.576748797506, -47293.63140983956, -10462.40454464013, -12568.29650024134, -0.136, 0.9580000000000001, 0.248, 192.0, 0.0, 0.0, 0.0, 0.0, 0.0, 0.0, 0.0, 0.0, 0.0, 1.6814211822863507E9, 0.0, 2023-04-13 17:26:22.286
136.0, -8750.193864130242, 10020.912888158904, -17397.234427599244, -5661.339242617994, 22628.48140340822, -47266.42933683746, -10437.191776894544, -12573.34799448824, -0.136, 0.9580000000000001, 0.248, 192.0, 0.0, 0.0, 0.0, 0.0, 0.0, 0.0, 0.0, 0.0, 0.0, 1.6814211822863698E9, 0.0, 2023-04-13 17:26:22.286
137.0, -8735.195843600732, 10030.546490019142, -17415.67461677487, -5405.9929139605665, 22896.121191516067, -47287.61879058109, -10466.338451664264, -12601.265323312919, -0.136, 0.9580000000000001, 0.248, 192.0, 0.0, 0.0, 0.0, 0.0, 0.0, 0.0, 0.0, 0.0, 0.0, 1.681421182286389E9, 0.0, 2023-04-13 17:26:22.286
138.0, -8767.337652127464, 10000.036358837648, -17444.798939800137, -5673.632702068413, 22887.96280478988, -47313.54681414924, -10485.583303640284, -12600.058329112331, -0.136, 0.9580000000000001, 0.248, 192.0, 0.0, 0.0, 0.0, 0.0, 0.0, 0.0, 0.0, 0.0, 0.0, 1.681421182286408E9, 0.0, 2023-04-13 17:26:22.286
139.0, -8784.21321919122, 9985.328910986056, -17434.45008211733, -5982.42205171848, 22621.53001088262, -47296.00069475183, -10468.193646454054, -12559.646375137136, -0.136, 0.9580000000000001, 0.248, 192.0, 0.0, 0.0, 0.0, 0.0, 0.0, 0.0, 0.0, 0.0, 0.0, 1.6814211822864273E9, 0.0, 2023-04-13 17:26:22.286
140.0, -8753.948957198734, 10011.480451998765, -17399.469602044774, -5748.354583782504, 22570.411571313332, -47267.90455197151, -10453.106218946723, -12560.942776315544, -0.136, 0.9580000000000001, 0.248, 192.0, 0.0, 0.0, 0.0, 0.0, 0.0, 0.0, 0.0, 0.0, 0.0, 1.681421182286446E9, 0.0, 2023-04-13 17:26:22.286
141.0, -8734.078256377967, 10029.205385351825, -17412.72418650677, -5402.662504036725, 22868.13680745802, -47288.222287681376, -10473.088678489767, -12600.214791323519, -0.136, 0.9580000000000001, 0.248, 192.0, 0.0, 0.0, 0.0, 0.0, 0.0, 0.0, 0.0, 0.0, 0.0, 1.681421182286465E9, 0.0, 2023-04-13 17:26:22.286
142.0, -8752.585500786961, 10013.045074110636, -17436.148814695935, -5605.3928262463605, 22918.09295631563, -47306.260145456814, -10482.31994894981, -12589.485953984971, -0.132, 0.9580000000000001, 0.248, 192.0, 251.0, 224.0, 29.0, 240.0, 7.0, 192.0, 0.0, 0.0, 0.0, 1.681421182286484E9, 0.0, 2023-04-13 17:26:22.286
143.0, -8779.45229762224, 9983.406660962899, -17435.075930962077, -5954.862350805086, 22666.59112770452, -47302.25918319931, -10467.366631909208, -12563.379116461172, -0.132, 0.9580000000000001, 0.248, 192.0, 0.0, 0.0, 0.0, 0.0, 0.0, 0.0, 0.0, 0.0, 0.0, 1.681421182286504E9, 0.0, 2023-04-13 17:26:22.286
144.0, -8758.39695434534, 10002.182126305357, -17402.77766022416, -5834.386448190981, 22541.689579688264, -47277.515802087284, -10450.625175312183, -12564.273186239385, -0.132, 0.9580000000000001, 0.248, 192.0, 0.0, 0.0, 0.0, 0.0, 0.0, 0.0, 0.0, 0.0, 0.0, 1.681421182286523E9, 0.0, 2023-04-13 17:26:22.286
145.0, -8728.289154564041, 10033.340458076056, -17402.53179103515, -5425.3048211699515, 22819.119431867533, -47284.26602891279, -10477.939007036568, -12601.555895990838, -0.132, 0.9580000000000001, 0.248, 192.0, 0.0, 0.0, 0.0, 0.0, 0.0, 0.0, 0.0, 0.0, 0.0, 1.68142118228656E9, 0.0, 2023-04-13 17:26:22.286
146.0, -8753.099590909433, 10015.995504378738, -17433.086625705557, -5552.396840142827, 22929.849973899123, -47312.5186339043, -10489.986597297979, -12604.595733236758, -0.132, 0.9580000000000001, 0.248, 192.0, 0.0, 0.0, 0.0, 0.0, 0.0, 0.0, 0.0, 0.0, 0.0, 1.6814211822865796E9, 0.0, 2023-04-13 17:26:22.286
147.0, -8784.481440124684, 9984.144268529924, -17436.081759462566, -5915.523280563746, 22718.06719518509, -47305.3660756786, -10477.626082614193, -12572.230407265473, -0.132, 0.9580000000000001, 0.248, 192.0, 0.0, 0.0, 0.0, 0.0, 0.0, 0.0, 0.0, 0.0, 0.0, 1.681421182286611E9, 0.0, 2023-04-13 17:26:22.286
