Sample Index, EXG Channel 0, EXG Channel 1, EXG Channel 2, EXG Channel 3, EXG Channel 4, EXG Channel 5, EXG Channel 6, EXG Channel 7, Accel Channel 0, Accel Channel 1, Accel Channel 2, Other, Other, Other, Other, Other, Other, Other, Analog Channel 0, Analog Channel 1, Analog Channel 2, Timestamp, Other, Timestamp (Formatted)
0.0, 0.0, 0.0, 0.0, 0.0, 0.0, 0.0, 0.0, 0.0, -0.048, 0.982, 0.148, 192.0, 254.0, 128.0, 30.0, 176.0, 4.0, 160.0, 0.0, 0.0, 0.0, 1.6814209327283783E9, 0.0, 2023-04-13 17:22:12.728
1.0, -5980.768022628788, 19171.89588211726, -27611.959291930118, -10091.544400637675, 19630.307809151152, -45585.04171193144, 709.7572934338205, -18347.429436138802, -0.048, 0.982, 0.148, 192.0, 0.0, 0.0, 0.0, 0.0, 0.0, 0.0, 0.0, 0.0, 0.0, 1.68142093320645E9, 0.0, 2023-04-13 17:22:13.206
2.0, -6047.3985728500575, 19158.46248369962, -27613.970948931095, -10181.174895903456, 19583.078573117087, -45596.68697079265, 714.3170493027031, -18330.084482441485, -0.048, 0.982, 0.148, 192.0, 0.0, 0.0, 0.0, 0.0, 0.0, 0.0, 0.0, 0.0, 0.0, 1.6814209332066665E9, 0.0, 2023-04-13 17:22:13.206
3.0, -6074.421831896524, 19158.194262766156, -27597.050678378426, -10225.900736558526, 19438.440434746797, -45582.94064795264, 732.7125349894209, -18303.44120305076, -0.048, 0.982, 0.148, 192.0, 0.0, 0.0, 0.0, 0.0, 0.0, 0.0, 0.0, 0.0, 0.0, 1.68142093320669E9, 0.0, 2023-04-13 17:22:13.206
4.0, -5999.409377504513, 19162.88812910177, -27594.994317888537, -10110.118700280036, 19478.114781154967, -45561.08064187535, 729.0021454098398, -18321.210839892727, -0.048, 0.982, 0.148, 192.0, 0.0, 0.0, 0.0, 0.0, 0.0, 0.0, 0.0, 0.0, 0.0, 1.6814209332067125E9, 0.0, 2023-04-13 17:22:13.206
5.0, -5983.494935452335, 19158.149559277244, -27628.61134154932, -10086.783479068694, 19641.729550567812, -45586.24870613202, 696.1897845494491, -18355.20784320925, -0.048, 0.982, 0.148, 192.0, 0.0, 0.0, 0.0, 0.0, 0.0, 0.0, 0.0, 0.0, 0.0, 1.6814209332067344E9, 0.0, 2023-04-13 17:22:13.206
6.0, -6041.162436147027, 19157.188434265667, -27631.606475306333, -10173.105916155091, 19623.69169279238, -45598.3633516268, 700.190746806949, -18335.404197621847, -0.048, 0.982, 0.148, 192.0, 0.0, 0.0, 0.0, 0.0, 0.0, 0.0, 0.0, 0.0, 0.0, 1.681420933206756E9, 0.0, 2023-04-13 17:22:13.206
7.0, -6062.82127652422, 19156.02614355399, -27613.546265786445, -10239.31178323171, 19458.42289428984, -45585.73461600955, 724.6212034965997, -18303.038871650562, -0.048, 0.982, 0.148, 192.0, 0.0, 0.0, 0.0, 0.0, 0.0, 0.0, 0.0, 0.0, 0.0, 1.6814209332067778E9, 0.0, 2023-04-13 17:22:13.206
8.0, -5993.866144879597, 19171.158274550235, -27605.007899404514, -10141.768770428751, 19447.537594740104, -45562.33233956484, 728.219834353904, -18315.265275867616, -0.07200000000000001, 0.994, 0.114, 192.0, 253.0, 192.0, 31.0, 16.0, 3.0, 144.0, 0.0, 0.0, 0.0, 1.6814209332067993E9, 0.0, 2023-04-13 17:22:13.206
9.0, -5991.541563456245, 19171.784123394984, -27632.209972406625, -10089.08570874759, 19604.804468727645, -45579.274961861964, 697.1062060721167, -18347.898822772364, -0.07200000000000001, 0.994, 0.114, 192.0, 0.0, 0.0, 0.0, 0.0, 0.0, 0.0, 0.0, 0.0, 0.0, 1.6814209332068229E9, 0.0, 2023-04-13 17:22:13.206
10.0, -6045.6327850380885, 19151.73460861857, -27640.971856233104, -10163.226445105845, 19608.961893196334, -45594.943534725135, 695.0498455822284, -18337.90759300084, -0.07200000000000001, 0.994, 0.114, 192.0, 0.0, 0.0, 0.0, 0.0, 0.0, 0.0, 0.0, 0.0, 0.0, 1.6814209332068443E9, 0.0, 2023-04-13 17:22:13.206
11.0, -6079.20510520996, 19141.251640469032, -27634.13222242978, -10251.426428726487, 19470.626946762437, -45595.77054926998, 708.99733412234, -18313.633598522378, -0.07200000000000001, 0.994, 0.114, 192.0, 0.0, 0.0, 0.0, 0.0, 0.0, 0.0, 0.0, 0.0, 0.0, 1.6814209332068658E9, 0.0, 2023-04-13 17:22:13.206
12.0, -6038.346116345659, 19147.152501005236, -27620.698824012143, -10184.661768038484, 19423.42006247283, -45573.5082117925, 718.9662121494069, -18314.90764795633, -0.07200000000000001, 0.994, 0.114, 192.0, 0.0, 0.0, 0.0, 0.0, 0.0, 0.0, 0.0, 0.0, 0.0, 1.6814209332068872E9, 0.0, 2023-04-13 17:22:13.206
13.0, -6012.216927077405, 19152.226346996587, -27649.13024295929, -10104.217839743835, 19595.126163378496, -45588.4615288331, 686.7126449003989, -18355.140787975884, -0.07200000000000001, 0.994, 0.114, 192.0, 0.0, 0.0, 0.0, 0.0, 0.0, 0.0, 0.0, 0.0, 0.0, 1.6814209332069085E9, 0.0, 2023-04-13 17:22:13.206
14.0, -6053.098267686161, 19145.99021029356, -27662.831862310395, -10169.127305642045, 19648.27861169322, -45610.83562503286, 673.7262813718655, -18352.458578641246, -0.07200000000000001, 0.994, 0.114, 192.0, 0.0, 0.0, 0.0, 0.0, 0.0, 0.0, 0.0, 0.0, 0.0, 1.68142093320693E9, 0.0, 2023-04-13 17:22:13.206
15.0, -6079.920361032529, 19134.613172365807, -27652.214783694126, -10257.483751473876, 19525.34401718903, -45609.33805815435, 690.6242001800777, -18321.836688737476, -0.07200000000000001, 0.994, 0.114, 192.0, 0.0, 0.0, 0.0, 0.0, 0.0, 0.0, 0.0, 0.0, 0.0, 1.6814209332069516E9, 0.0, 2023-04-13 17:22:13.206
16.0, -6036.915604700519, 19149.16415800621, -27629.214838649612, -10214.099015486123, 19415.909876335845, -45579.96786594008, 715.0546568697282, -18305.206990862727, -0.07200000000000001, 0.994, 0.114, 192.0, 0.0, 0.0, 0.0, 0.0, 0.0, 0.0, 0.0, 0.0, 0.0, 1.6814209332071764E9, 0.0, 2023-04-13 17:22:13.207
17.0, -5995.833098391664, 19169.99598383856, -27643.65406556774, -10106.698883378373, 19554.893023358945, -45579.699645006614, 694.6251624375776, -18338.980476734698, -0.07200000000000001, 0.994, 0.114, 192.0, 0.0, 0.0, 0.0, 0.0, 0.0, 0.0, 0.0, 0.0, 0.0, 1.681420933207199E9, 0.0, 2023-04-13 17:22:13.207
18.0, -6038.8825582125855, 19152.963954563613, -27667.86100481284, -10153.659898478973, 19641.12605346752, -45603.57130808489, 674.8885720835415, -18349.86577628443, -0.082, 0.996, 0.10400000000000001, 192.0, 253.0, 112.0, 31.0, 32.0, 3.0, 64.0, 0.0, 0.0, 0.0, 1.6814209332072191E9, 0.0, 2023-04-13 17:22:13.207
19.0, -6080.277988943814, 19134.769634576995, -27660.194356464668, -10247.31370774671, 19545.170014520885, -45605.87353776378, 687.8078803787089, -18322.10490967094, -0.082, 0.996, 0.10400000000000001, 192.0, 0.0, 0.0, 0.0, 0.0, 0.0, 0.0, 0.0, 0.0, 0.0, 1.6814209332072396E9, 0.0, 2023-04-13 17:22:13.207
20.0, -6056.227511909904, 19144.179718992676, -27633.662835796218, -10238.529472175775, 19422.16836478333, -45573.776432725965, 713.5570899912227, -18296.176886102785, -0.082, 0.996, 0.10400000000000001, 192.0, 0.0, 0.0, 0.0, 0.0, 0.0, 0.0, 0.0, 0.0, 0.0, 1.681420933207271E9, 0.0, 2023-04-13 17:22:13.207
21.0, -5995.453118735924, 19159.155387777733, -27647.967952247614, -10116.33248523861, 19548.96981107829, -45567.54029602293, 692.0994153141279, -18332.34200863147, -0.082, 0.996, 0.10400000000000001, 192.0, 0.0, 0.0, 0.0, 0.0, 0.0, 0.0, 0.0, 0.0, 0.0, 1.681420933207292E9, 0.0, 2023-04-13 17:22:13.207
22.0, -6015.502633512335, 19156.98726856557, -27671.504339159055, -10146.596747231097, 19663.723667111833, -45599.65975280521, 670.194705747927, -18347.295325672072, -0.082, 0.996, 0.10400000000000001, 192.0, 0.0, 0.0, 0.0, 0.0, 0.0, 0.0, 0.0, 0.0, 0.0, 1.6814209332073174E9, 0.0, 2023-04-13 17:22:13.207
23.0, -6070.130296961105, 19138.12239624529, -27658.316809930424, -10233.12035001759, 19579.658756215424, -45606.8123110309, 688.3890257345469, -18314.840592722965, -0.082, 0.996, 0.10400000000000001, 192.0, 0.0, 0.0, 0.0, 0.0, 0.0, 0.0, 0.0, 0.0, 0.0, 1.6814209332073367E9, 0.0, 2023-04-13 17:22:13.207
24.0, -6071.314939417236, 19137.36243693381, -27633.059338695926, -10251.851111871138, 19432.584277699505, -45584.97465669807, 715.4346365254685, -18285.47040050869, -0.082, 0.996, 0.10400000000000001, 192.0, 0.0, 0.0, 0.0, 0.0, 0.0, 0.0, 0.0, 0.0, 0.0, 1.6814209332073555E9, 0.0, 2023-04-13 17:22:13.207
25.0, -5998.895287382042, 19157.233137754578, -27637.306170142434, -10124.66968592044, 19519.62197060847, -45570.60248501331, 704.3258195311809, -18313.834764222476, -0.082, 0.996, 0.10400000000000001, 192.0, 0.0, 0.0, 0.0, 0.0, 0.0, 0.0, 0.0, 0.0, 0.0, 1.6814209332073746E9, 0.0, 2023-04-13 17:22:13.207
26.0, -6000.303447282726, 19153.478044686086, -27668.08452225739, -10128.67064817794, 19667.322297969138, -45598.028075459966, 675.5144209282901, -18338.980476734698, -0.082, 0.996, 0.10400000000000001, 192.0, 0.0, 0.0, 0.0, 0.0, 0.0, 0.0, 0.0, 0.0, 0.0, 1.6814209332073936E9, 0.0, 2023-04-13 17:22:13.207
27.0, -6049.544340317767, 19142.70450385863, -27668.24098446858, -10218.2117364659, 19630.196050428876, -45610.545052354944, 683.4716419543794, -18319.690921269765, -0.082, 0.996, 0.10400000000000001, 192.0, 0.0, 0.0, 0.0, 0.0, 0.0, 0.0, 0.0, 0.0, 0.0, 1.6814209332074125E9, 0.0, 2023-04-13 17:22:13.207
28.0, -6063.558884091245, 19144.805567837426, -27644.928115001694, -10269.598396968651, 19469.8446357065, -45596.19523241463, 711.2325085678707, -18287.213836576204, -0.092, 1.0, 0.096, 192.0, 253.0, 32.0, 31.0, 64.0, 3.0, 0.0, 0.0, 0.0, 0.0, 1.6814209332074316E9, 0.0, 2023-04-13 17:22:13.207
29.0, -6011.032284621273, 19151.26522198501, -27650.583106348888, -10159.359593315077, 19508.468450125274, -45580.70547350711, 704.772854420287, -18312.538363044067, -0.092, 1.0, 0.096, 192.0, 0.0, 0.0, 0.0, 0.0, 0.0, 0.0, 0.0, 0.0, 0.0, 1.681420933207452E9, 0.0, 2023-04-13 17:22:13.207
30.0, -6017.00020039084, 19144.470291670597, -27686.457656199655, -10137.343125026598, 19670.0939142816, -45604.51008135201, 670.7534993593097, -18342.556755847545, -0.092, 1.0, 0.096, 192.0, 0.0, 0.0, 0.0, 0.0, 0.0, 0.0, 0.0, 0.0, 0.0, 1.6814209332074711E9, 0.0, 2023-04-13 17:22:13.207
31.0, -6071.314939417236, 19132.087425242356, -27691.889130102296, -10216.44594865393, 19659.61094613206, -45614.00957274551, 672.385176704547, -18322.976627704695, -0.092, 1.0, 0.096, 192.0, 0.0, 0.0, 0.0, 0.0, 0.0, 0.0, 0.0, 0.0, 0.0, 1.6814209332074904E9, 0.0, 2023-04-13 17:22:13.207
32.0, -6098.986399052907, 19124.10785247181, -27677.04757178397, -10284.238789586878, 19517.94558977432, -45604.01834297399, 694.3122380152033, -18291.818295933997, -0.092, 1.0, 0.096, 192.0, 0.0, 0.0, 0.0, 0.0, 0.0, 0.0, 0.0, 0.0, 0.0, 1.681420933207582E9, 0.0, 2023-04-13 17:22:13.207
33.0, -6057.702727043954, 19133.383826420766, -27666.2293274676, -10192.641340809028, 19504.691005312325, -45582.04657817443, 701.0177613517955, -18298.412060548315, -0.092, 1.0, 0.096, 192.0, 0.0, 0.0, 0.0, 0.0, 0.0, 0.0, 0.0, 0.0, 0.0, 1.6814209332076013E9, 0.0, 2023-04-13 17:22:13.207
34.0, -6039.5307588017895, 19133.674399098683, -27690.771542879527, -10129.38590400051, 19672.060867793665, -45596.08347369236, 671.9828453043515, -18333.034912709583, -0.092, 1.0, 0.096, 192.0, 0.0, 0.0, 0.0, 0.0, 0.0, 0.0, 0.0, 0.0, 0.0, 1.6814209332076204E9, 0.0, 2023-04-13 17:22:13.207
35.0, -6086.558829135755, 19121.35858790381, -27696.87356911583, -10205.940628759936, 19694.971405860353, -45612.444950633646, 670.7311476148543, -18321.14378465936, -0.092, 1.0, 0.096, 192.0, 0.0, 0.0, 0.0, 0.0, 0.0, 0.0, 0.0, 0.0, 0.0, 1.6814209332076395E9, 0.0, 2023-04-13 17:22:13.207
36.0, -6133.07280934725, 19118.318750657887, -27678.09810377337, -10282.495353519364, 19545.72880813227, -45600.754988283516, 696.547412460734, -18284.375165030382, -0.092, 1.0, 0.096, 192.0, 0.0, 0.0, 0.0, 0.0, 0.0, 0.0, 0.0, 0.0, 0.0, 1.6814209332076583E9, 0.0, 2023-04-13 17:22:13.207
37.0, -6112.688018404009, 19107.388747619243, -27675.95233630566, -10226.861861570103, 19489.067135938065, -45585.89107822074, 696.837985138653, -18295.841609935953, -0.092, 1.0, 0.096, 192.0, 0.0, 0.0, 0.0, 0.0, 0.0, 0.0, 0.0, 0.0, 0.0, 1.6814209332076774E9, 0.0, 2023-04-13 17:22:13.207
38.0, -6070.86790452813, 19092.658948023196, -27699.823999383927, -10144.652145463484, 19646.378713414517, -45600.822043516884, 667.6019033911114, -18333.57135457651, -0.09, 0.994, 0.092, 192.0, 253.0, 48.0, 31.0, 16.0, 2.0, 224.0, 0.0, 0.0, 0.0, 1.6814209332076964E9, 0.0, 2023-04-13 17:22:13.207
39.0, -6125.182643554526, 19064.048715120403, -27715.447868758187, -10211.103881729112, 19696.670138438956, -45625.923052540194, 655.2860921962372, -18337.237040667183, -0.09, 0.994, 0.092, 192.0, 0.0, 0.0, 0.0, 0.0, 0.0, 0.0, 0.0, 0.0, 0.0, 1.6814209332077172E9, 0.0, 2023-04-13 17:22:13.207
40.0, -6188.102804196215, 19031.52692693793, -27707.937682621206, -10303.79656598527, 19575.50133174674, -45625.25250020653, 672.9216185714745, -18307.889200197365, -0.09, 0.994, 0.092, 192.0, 0.0, 0.0, 0.0, 0.0, 0.0, 0.0, 0.0, 0.0, 0.0, 1.6814209332077365E9, 0.0, 2023-04-13 17:22:13.207
41.0, -6166.756888241397, 19028.084758291814, -27688.268147500534, -10273.107620848134, 19479.075906166545, -45601.76081678401, 695.0051420933178, -18294.52285701309, -0.09, 0.994, 0.092, 192.0, 0.0, 0.0, 0.0, 0.0, 0.0, 0.0, 0.0, 0.0, 0.0, 1.6814209332077553E9, 0.0, 2023-04-13 17:22:13.207
42.0, -6124.780312154331, 19024.597886156786, -27709.703470433175, -10169.976671931348, 19618.908419478943, -45605.69472380814, 675.6038279061113, -18328.408101607336, -0.09, 0.994, 0.092, 192.0, 0.0, 0.0, 0.0, 0.0, 0.0, 0.0, 0.0, 0.0, 0.0, 1.6814209332077744E9, 0.0, 2023-04-13 17:22:13.207
43.0, -6170.869609221174, 19004.637778358196, -27730.088261376415, -10218.50230914382, 19711.399938035007, -45628.98524153057, 657.163638730483, -18335.49360459967, -0.09, 0.994, 0.092, 192.0, 0.0, 0.0, 0.0, 0.0, 0.0, 0.0, 0.0, 0.0, 0.0, 1.6814209332077973E9, 0.0, 2023-04-13 17:22:13.207
44.0, -6232.985107062472, 18997.932255021602, -27721.594598483396, -10314.413644601542, 19616.986169455788, -45632.85209332134, 671.9604935598962, -18307.464517052715, -0.09, 0.994, 0.092, 192.0, 0.0, 0.0, 0.0, 0.0, 0.0, 0.0, 0.0, 0.0, 0.0, 1.6814209332078168E9, 0.0, 2023-04-13 17:22:13.207
45.0, -6220.155205745126, 18999.698042833574, -27702.662670929752, -10313.743092267883, 19489.983557460735, -45609.80744478792, 694.6028106931223, -18286.677394709277, -0.09, 0.994, 0.092, 192.0, 0.0, 0.0, 0.0, 0.0, 0.0, 0.0, 0.0, 0.0, 0.0, 1.6814209332078357E9, 0.0, 2023-04-13 17:22:13.207
46.0, -6142.639355974121, 18985.86231301574, -27722.846296172895, -10194.652997810006, 19613.141669409477, -45606.49938660853, 670.6417406370331, -18325.122395172406, -0.09, 0.994, 0.092, 192.0, 0.0, 0.0, 0.0, 0.0, 0.0, 0.0, 0.0, 0.0, 0.0, 1.6814209332078547E9, 0.0, 2023-04-13 17:22:13.207
47.0, -6190.874420508674, 18978.061554200835, -27740.86180220387, -10216.781224820761, 19721.413519550984, -45627.15239848523, 653.5203043842679, -18331.023255708606, -0.09, 0.994, 0.092, 192.0, 0.0, 0.0, 0.0, 0.0, 0.0, 0.0, 0.0, 0.0, 0.0, 1.6814209332079415E9, 0.0, 2023-04-13 17:22:13.207
48.0, -6247.8490171252515, 18978.262719900933, -27727.808383441974, -10296.040510659279, 19633.973495241822, -45623.062029249915, 667.2219237353711, -18301.5189530276, -0.094, 0.994, 0.088, 192.0, 253.0, 16.0, 31.0, 16.0, 2.0, 192.0, 0.0, 0.0, 0.0, 1.6814209332079616E9, 0.0, 2023-04-13 17:22:13.207
49.0, -6239.534168187877, 18982.174275180612, -27711.178685567225, -10327.75763604136, 19495.81736276357, -45610.72386631058, 681.0129500642956, -18285.492752253147, -0.094, 0.994, 0.088, 192.0, 0.0, 0.0, 0.0, 0.0, 0.0, 0.0, 0.0, 0.0, 0.0, 1.6814209332079828E9, 0.0, 2023-04-13 17:22:13.207
50.0, -6155.938643925028, 19007.699967348573, -27709.72582217763, -10207.862878783093, 19563.051410085132, -45596.01641845899, 675.3356069726476, -18307.10688914143, -0.094, 0.994, 0.088, 192.0, 0.0, 0.0, 0.0, 0.0, 0.0, 0.0, 0.0, 0.0, 0.0, 1.6814209332080016E9, 0.0, 2023-04-13 17:22:13.208
51.0, -6164.7899347293305, 19005.66595860314, -27736.413805057266, -10201.850259524615, 19701.81103966368, -45620.13395072627, 649.1840659599384, -18332.14084293137, -0.094, 0.994, 0.088, 192.0, 0.0, 0.0, 0.0, 0.0, 0.0, 0.0, 0.0, 0.0, 0.0, 1.6814209332080204E9, 0.0, 2023-04-13 17:22:13.208
52.0, -6208.956981773017, 18995.09358347578, -27736.324398079443, -10288.88795243358, 19664.37186770104, -45630.683974109175, 654.6825950959438, -18313.67830201129, -0.094, 0.994, 0.088, 192.0, 0.0, 0.0, 0.0, 0.0, 0.0, 0.0, 0.0, 0.0, 0.0, 1.681420933208044E9, 0.0, 2023-04-13 17:22:13.208
53.0, -6216.444816165545, 19005.934179536605, -27724.25445607358, -10347.76244732886, 19513.81051705009, -45623.017325761, 672.4969354268236, -18288.309072054515, -0.094, 0.994, 0.088, 192.0, 0.0, 0.0, 0.0, 0.0, 0.0, 0.0, 0.0, 0.0, 0.0, 1.6814209332080631E9, 0.0, 2023-04-13 17:22:13.208
54.0, -6147.98142289894, 19013.310255206856, -27730.602351498885, -10247.023135068792, 19549.305087245117, -45607.192290686646, 664.1820864894494, -18309.58793277597, -0.094, 0.994, 0.088, 192.0, 0.0, 0.0, 0.0, 0.0, 0.0, 0.0, 0.0, 0.0, 0.0, 1.6814209332080834E9, 0.0, 2023-04-13 17:22:13.208
55.0, -6146.93089090954, 19021.021607043935, -27757.715017523173, -10215.462471897898, 19705.09674609861, -45625.63247986227, 636.6894408094216, -18336.164156933326, -0.094, 0.994, 0.088, 192.0, 0.0, 0.0, 0.0, 0.0, 0.0, 0.0, 0.0, 0.0, 0.0, 1.6814209332081025E9, 0.0, 2023-04-13 17:22:13.208
56.0, -6191.567324586788, 19019.836964587805, -27753.982276199138, -10288.284455333287, 19680.442771964405, -45631.93567179867, 643.3726124015585, -18315.95817994573, -0.094, 0.994, 0.088, 192.0, 0.0, 0.0, 0.0, 0.0, 0.0, 0.0, 0.0, 0.0, 0.0, 1.6814209332081225E9, 0.0, 2023-04-13 17:22:13.208
57.0, -6212.6897230970535, 19036.489014207007, -27730.624703243342, -10352.635127620117, 19522.393586920927, -45618.39051465876, 669.2782842252594, -18282.028231862572, -0.094, 0.994, 0.088, 192.0, 0.0, 0.0, 0.0, 0.0, 0.0, 0.0, 0.0, 0.0, 0.0, 1.681420933208141E9, 0.0, 2023-04-13 17:22:13.208
58.0, -6147.780257198841, 19054.66098244917, -27718.934740893215, -10262.065859087214, 19498.030185464642, -45594.809424258405, 676.2520284953151, -18289.80663893302, -0.098, 0.996, 0.08600000000000001, 192.0, 252.0, 240.0, 31.0, 32.0, 2.0, 176.0, 0.0, 0.0, 0.0, 1.6814209332081604E9, 0.0, 2023-04-13 17:22:13.208
59.0, -6116.264297516858, 19053.655153948683, -27747.097938906903, -10198.184573433946, 19672.530254427227, -45612.69081982265, 645.2501589358043, -18326.23998239517, -0.098, 0.996, 0.08600000000000001, 192.0, 0.0, 0.0, 0.0, 0.0, 0.0, 0.0, 0.0, 0.0, 0.0, 1.681420933208194E9, 0.0, 2023-04-13 17:22:13.208
60.0, -6164.298196351314, 19057.410247017175, -27756.217450644668, -10267.69849868995, 19703.532123986737, -45629.901663053235, 639.6398710775222, -18319.087424169473, -0.098, 0.996, 0.08600000000000001, 192.0, 0.0, 0.0, 0.0, 0.0, 0.0, 0.0, 0.0, 0.0, 0.0, 1.6814209332082136E9, 0.0, 2023-04-13 17:22:13.208
61.0, -6197.378778145168, 19068.340250055822, -27744.3486743389, -10355.2949852103, 19591.661642987925, -45628.717020597105, 654.5931881181226, -18291.639481978356, -0.098, 0.996, 0.08600000000000001, 192.0, 0.0, 0.0, 0.0, 0.0, 0.0, 0.0, 0.0, 0.0, 0.0, 1.6814209332082329E9, 0.0, 2023-04-13 17:22:13.208
62.0, -6141.6111757291765, 19081.416020562177, -27725.595560740898, -10293.85003970266, 19529.568496891083, -45601.06791270589, 669.5241534142677, -18286.699746453734, -0.098, 0.996, 0.08600000000000001, 192.0, 0.0, 0.0, 0.0, 0.0, 0.0, 0.0, 0.0, 0.0, 0.0, 1.6814209332082517E9, 0.0, 2023-04-13 17:22:13.208
63.0, -6092.772614094331, 19090.64729102222, -27748.461395318678, -10197.804593778204, 19689.785801146725, -45602.34196213984, 642.4785426233462, -18320.24971488115, -0.098, 0.996, 0.08600000000000001, 192.0, 0.0, 0.0, 0.0, 0.0, 0.0, 0.0, 0.0, 0.0, 0.0, 1.681420933208294E9, 0.0, 2023-04-13 17:22:13.208
64.0, -6131.955222124484, 19082.555959529396, -27763.168843170268, -10254.622728183596, 19747.699171030425, -45622.61499436081, 629.7380482838212, -18321.255543381638, -0.098, 0.996, 0.08600000000000001, 192.0, 0.0, 0.0, 0.0, 0.0, 0.0, 0.0, 0.0, 0.0, 0.0, 1.681420933208317E9, 0.0, 2023-04-13 17:22:13.208
65.0, -6167.4944958084225, 19087.026308420456, -27744.236915616624, -10330.95393549847, 19633.794681286177, -45616.200043702134, 651.5086473832903, -18286.722098198188, -0.098, 0.996, 0.08600000000000001, 192.0, 0.0, 0.0, 0.0, 0.0, 0.0, 0.0, 0.0, 0.0, 0.0, 1.6814209332083364E9, 0.0, 2023-04-13 17:22:13.208
66.0, -6129.183605812026, 19099.811506248894, -27722.511020006066, -10293.693577491473, 19532.653037625914, -45591.099034678824, 670.7534993593097, -18275.6132812039, -0.098, 0.996, 0.08600000000000001, 192.0, 0.0, 0.0, 0.0, 0.0, 0.0, 0.0, 0.0, 0.0, 0.0, 1.681420933208356E9, 0.0, 2023-04-13 17:22:13.208
67.0, -6072.767802806831, 19115.480079112065, -27742.404072571288, -10188.707433784895, 19678.833446363624, -45598.27394464898, 646.2559874362931, -18315.265275867616, -0.098, 0.996, 0.08600000000000001, 192.0, 0.0, 0.0, 0.0, 0.0, 0.0, 0.0, 0.0, 0.0, 0.0, 1.6814209332083752E9, 0.0, 2023-04-13 17:22:13.208
68.0, -6101.2215734984375, 19121.73856755955, -27757.267982634068, -10233.12035001759, 19759.031505469266, -45621.9667937716, 634.6107285750782, -18321.076729425997, -0.092, 1.0, 0.088, 192.0, 253.0, 32.0, 31.0, 64.0, 2.0, 192.0, 0.0, 0.0, 0.0, 1.6814209332083943E9, 0.0, 2023-04-13 17:22:13.208
69.0, -6144.852178675196, 19117.849364024325, -27748.21552612967, -10321.856775505159, 19676.955899829376, -45625.18544497317, 648.1782374594495, -18293.785249446064, -0.092, 1.0, 0.088, 192.0, 0.0, 0.0, 0.0, 0.0, 0.0, 0.0, 0.0, 0.0, 0.0, 1.6814209332084143E9, 0.0, 2023-04-13 17:22:13.208
70.0, -6124.869719132152, 19125.806585050417, -27727.20488634168, -10328.428188375019, 19544.09713078703, -45604.93476449666, 670.8429063371309, -18272.6628509358, -0.092, 1.0, 0.088, 192.0, 0.0, 0.0, 0.0, 0.0, 0.0, 0.0, 0.0, 0.0, 0.0, 1.6814209332084334E9, 0.0, 2023-04-13 17:22:13.208
71.0, -6043.509369314835, 19147.957163805626, -27730.28942707651, -10208.689893327939, 19653.732437340313, -45597.335171381856, 659.9576067873963, -18297.42858379228, -0.092, 1.0, 0.088, 192.0, 0.0, 0.0, 0.0, 0.0, 0.0, 0.0, 0.0, 0.0, 0.0, 1.6814209332084527E9, 0.0, 2023-04-13 17:22:13.208
72.0, -6052.226549652404, 19131.2157072086, -27752.864688976373, -10223.978486535369, 19784.713659848414, -45617.40703790272, 635.6836123089329, -18312.4713078107, -0.092, 1.0, 0.088, 192.0, 0.0, 0.0, 0.0, 0.0, 0.0, 0.0, 0.0, 0.0, 0.0, 1.6814209332084718E9, 0.0, 2023-04-13 17:22:13.208
73.0, -6109.245849757892, 19110.294474398434, -27753.691703521217, -10313.586630056696, 19729.303685343708, -45631.55569214293, 638.2764146657485, -18292.198275589737, -0.092, 1.0, 0.088, 192.0, 0.0, 0.0, 0.0, 0.0, 0.0, 0.0, 0.0, 0.0, 0.0, 1.681420933208491E9, 0.0, 2023-04-13 17:22:13.208
74.0, -6121.0028673413835, 19127.997056007036, -27728.30012181999, -10346.041363005801, 19572.930881134376, -45615.50713962402, 665.5902463901338, -18261.732847897154, -0.092, 1.0, 0.088, 192.0, 0.0, 0.0, 0.0, 0.0, 0.0, 0.0, 0.0, 0.0, 0.0, 1.6814209332085102E9, 0.0, 2023-04-13 17:22:13.208
75.0, -6060.2508259118595, 19145.78904459346, -27734.603313756386, -10226.861861570103, 19645.39523665848, -45606.49938660853, 653.5650078731785, -18292.824124434486, -0.092, 1.0, 0.088, 192.0, 0.0, 0.0, 0.0, 0.0, 0.0, 0.0, 0.0, 0.0, 0.0, 1.6814209332085292E9, 0.0, 2023-04-13 17:22:13.208
76.0, -6058.999128222362, 19140.424625924188, -27762.610049558887, -10217.697646343428, 19798.81761059971, -45632.71798285461, 625.2676993927598, -18320.8755637259, -0.092, 1.0, 0.088, 192.0, 0.0, 0.0, 0.0, 0.0, 0.0, 0.0, 0.0, 0.0, 0.0, 1.6814209332085483E9, 0.0, 2023-04-13 17:22:13.208
77.0, -6107.949448579485, 19140.759902091017, -27756.26215413358, -10297.269856604322, 19763.971240993887, -45642.53039867048, 635.6612605644775, -18300.893104182855, -0.092, 1.0, 0.088, 192.0, 0.0, 0.0, 0.0, 0.0, 0.0, 0.0, 0.0, 0.0, 0.0, 1.6814209332085674E9, 0.0, 2023-04-13 17:22:13.208
78.0, -6127.26135578887, 19146.079617271378, -27735.005645156583, -10349.662345607561, 19612.337006609083, -45632.38270668778, 659.1082404980947, -18271.031173590563, -0.09, 1.0, 0.08600000000000001, 192.0, 253.0, 48.0, 31.0, 64.0, 2.0, 176.0, 0.0, 0.0, 0.0, 1.6814209332086062E9, 0.0, 2023-04-13 17:22:13.208
79.0, -6060.161418934038, 19165.995021581057, -27731.451717788186, -10244.184463522966, 19640.27668717822, -45615.39538090174, 656.0907549966282, -18287.32559529848, -0.09, 1.0, 0.08600000000000001, 192.0, 0.0, 0.0, 0.0, 0.0, 0.0, 0.0, 0.0, 0.0, 0.0, 1.6814209332086267E9, 0.0, 2023-04-13 17:22:13.208
80.0, -6038.793151234764, 19166.21853902561, -27756.776244256052, -10205.53829735974, 19800.695157133956, -45634.796695088946, 625.938251726419, -18317.14282240186, -0.09, 1.0, 0.08600000000000001, 192.0, 0.0, 0.0, 0.0, 0.0, 0.0, 0.0, 0.0, 0.0, 0.0, 1.6814209332086463E9, 0.0, 2023-04-13 17:22:13.208
81.0, -6086.558829135755, 19156.629640654282, -27765.716942038172, -10289.156173367044, 19808.339453737673, -45657.48371571109, 620.0597429346732, -18310.124374642895, -0.09, 1.0, 0.08600000000000001, 192.0, 0.0, 0.0, 0.0, 0.0, 0.0, 0.0, 0.0, 0.0, 0.0, 1.681420933208665E9, 0.0, 2023-04-13 17:22:13.208
82.0, -6118.9465068514955, 19162.619908168308, -27748.595505785408, -10360.011203290369, 19664.237757234307, -45649.10181154035, 640.7798100447428, -18276.887330637852, -0.09, 1.0, 0.08600000000000001, 192.0, 0.0, 0.0, 0.0, 0.0, 0.0, 0.0, 0.0, 0.0, 0.0, 1.6814209332086842E9, 0.0, 2023-04-13 17:22:13.208
83.0, -6054.998165964862, 19190.93956839318, -27732.479898033132, -10274.60518772664, 19625.368073626527, -45618.61403210331, 653.9226357844634, -18273.892196880843, -0.09, 1.0, 0.08600000000000001, 192.0, 0.0, 0.0, 0.0, 0.0, 0.0, 0.0, 0.0, 0.0, 0.0, 1.6814209332087033E9, 0.0, 2023-04-13 17:22:13.208
84.0, -6018.363656802614, 19189.26318755903, -27761.738331525128, -10206.231201437855, 19799.063479788718, -45631.734506098575, 620.6185365460559, -18310.99609267665, -0.09, 1.0, 0.08600000000000001, 192.0, 0.0, 0.0, 0.0, 0.0, 0.0, 0.0, 0.0, 0.0, 0.0, 1.6814209332087224E9, 0.0, 2023-04-13 17:22:13.208
85.0, -6071.940788261984, 19174.98042285209, -27773.584756086442, -10279.343757551165, 19837.374369785117, -45651.873427852806, 612.616612031056, -18302.14480187235, -0.09, 1.0, 0.08600000000000001, 192.0, 0.0, 0.0, 0.0, 0.0, 0.0, 0.0, 0.0, 0.0, 0.0, 1.6814209332087412E9, 0.0, 2023-04-13 17:22:13.208
86.0, -6105.937791578507, 19169.437190227174, -27760.799558258004, -10361.62052889115, 19707.51073449978, -45650.19704701866, 632.7331820408323, -18267.164321799795, -0.09, 1.0, 0.08600000000000001, 192.0, 0.0, 0.0, 0.0, 0.0, 0.0, 0.0, 0.0, 0.0, 0.0, 1.6814209332087631E9, 0.0, 2023-04-13 17:22:13.208
87.0, -6058.5520933332555, 19182.33414677789, -27740.794746970507, -10306.299961364266, 19620.137765423988, -45627.0182880185, 648.0888304816283, -18259.497673451624, -0.09, 1.0, 0.08600000000000001, 192.0, 0.0, 0.0, 0.0, 0.0, 0.0, 0.0, 0.0, 0.0, 0.0, 1.6814209332087822E9, 0.0, 2023-04-13 17:22:13.208
88.0, -6012.5298514997785, 19185.575149723907, -27762.20771815869, -10213.741387574839, 19786.81472382721, -45638.574139901895, 617.0422574332068, -18301.027214649584, -0.08600000000000001, 0.998, 0.092, 192.0, 253.0, 80.0, 31.0, 48.0, 2.0, 224.0, 0.0, 0.0, 0.0, 1.681420933208801E9, 0.0, 2023-04-13 17:22:13.208
89.0, -6038.770799490309, 19186.312757290932, -27779.709134067194, -10280.79662094076, 19858.92145144003, -45671.20768680664, 598.3785508130254, -18308.738566486667, -0.08600000000000001, 0.998, 0.092, 192.0, 0.0, 0.0, 0.0, 0.0, 0.0, 0.0, 0.0, 0.0, 0.0, 1.6814209332088208E9, 0.0, 2023-04-13 17:22:13.208
90.0, -6070.666738828032, 19182.155332822244, -27760.196061157712, -10367.879017338637, 19731.58356327815, -45671.11827982882, 619.7244667678436, -18274.830970147967, -0.08600000000000001, 0.998, 0.092, 192.0, 0.0, 0.0, 0.0, 0.0, 0.0, 0.0, 0.0, 0.0, 0.0, 1.6814209332088435E9, 0.0, 2023-04-13 17:22:13.208
91.0, -6028.466645296413, 19183.295271789466, -27737.53139228003, -10338.33001116872, 19623.35641662555, -45646.15138127225, 639.7516297997987, -18258.98358332915, -0.08600000000000001, 0.998, 0.092, 192.0, 0.0, 0.0, 0.0, 0.0, 0.0, 0.0, 0.0, 0.0, 0.0, 1.6814209332088628E9, 0.0, 2023-04-13 17:22:13.208
92.0, -5974.5542376702115, 19199.902617919757, -27753.53524131003, -10225.78897783625, 19753.33181063316, -45645.95021557215, 620.7302952683324, -18290.85717092242, -0.08600000000000001, 0.998, 0.092, 192.0, 0.0, 0.0, 0.0, 0.0, 0.0, 0.0, 0.0, 0.0, 0.0, 1.681420933208882E9, 0.0, 2023-04-13 17:22:13.208
93.0, -6006.04784560774, 19201.690757476183, -27772.467168863677, -10263.250501543343, 19843.074064621218, -45672.30292228496, 604.5923357716007, -18298.05443263703, -0.08600000000000001, 0.998, 0.092, 192.0, 0.0, 0.0, 0.0, 0.0, 0.0, 0.0, 0.0, 0.0, 0.0, 1.6814209332089007E9, 0.0, 2023-04-13 17:22:13.208
94.0, -6050.192540906971, 19188.50322824755, -27764.24172690412, -10348.611813618161, 19753.085941444155, -45675.14159383078, 621.4455510909023, -18269.354792756414, -0.08600000000000001, 0.998, 0.092, 192.0, 0.0, 0.0, 0.0, 0.0, 0.0, 0.0, 0.0, 0.0, 0.0, 1.681420933208938E9, 0.0, 2023-04-13 17:22:13.208
95.0, -6045.3422123601695, 19195.52167600652, -27741.219430115158, -10355.429095677031, 19602.949273937855, -45653.41569822022, 649.4075834044914, -18244.56670815548, -0.08600000000000001, 0.998, 0.092, 192.0, 0.0, 0.0, 0.0, 0.0, 0.0, 0.0, 0.0, 0.0, 0.0, 1.6814209332089574E9, 0.0, 2023-04-13 17:22:13.208
96.0, -5973.570760914178, 19203.411841799243, -27756.48567157813, -10233.567384906697, 19701.006376863286, -45650.08528829638, 631.4814843513351, -18282.47526675168, -0.08600000000000001, 0.998, 0.092, 192.0, 0.0, 0.0, 0.0, 0.0, 0.0, 0.0, 0.0, 0.0, 0.0, 1.6814209332089765E9, 0.0, 2023-04-13 17:22:13.208
97.0, -5985.014854075295, 19199.835562686392, -27779.753837556105, -10247.850149613638, 19823.002198100352, -45677.175602576215, 610.6720102634442, -18297.115659369905, -0.08600000000000001, 0.998, 0.092, 192.0, 0.0, 0.0, 0.0, 0.0, 0.0, 0.0, 0.0, 0.0, 0.0, 1.6814209332090073E9, 0.0, 2023-04-13 17:22:13.209
98.0, -6038.10024715665, 19187.09506834687, -27780.49144512313, -10338.218252446444, 19759.456188613916, -45689.58082074891, 619.679763278933, -18277.781400416065, -0.09, 0.99, 0.084, 192.0, 253.0, 48.0, 30.0, 240.0, 2.0, 160.0, 0.0, 0.0, 0.0, 1.6814209332090263E9, 0.0, 2023-04-13 17:22:13.209
99.0, -6051.712459529932, 19183.74230667857, -27763.034732703538, -10378.71961339946, 19611.10766066404, -45677.04149210948, 643.3726124015585, -18251.18282451425, -0.09, 0.99, 0.084, 192.0, 0.0, 0.0, 0.0, 0.0, 0.0, 0.0, 0.0, 0.0, 0.0, 1.6814209332090511E9, 0.0, 2023-04-13 17:22:13.209
100.0, -5985.28307500876, 19201.064908631433, -27758.787901257027, -10249.884158359071, 19671.94910907139, -45655.60616917684, 640.7798100447428, -18272.32757476897, -0.09, 0.99, 0.084, 192.0, 0.0, 0.0, 0.0, 0.0, 0.0, 0.0, 0.0, 0.0, 0.0, 1.6814209332090704E9, 0.0, 2023-04-13 17:22:13.209
101.0, -5983.4725837078795, 19200.103783619856, -27788.180445215756, -10233.41092269551, 19828.187802813984, -45681.57889623391, 611.230803874827, -18300.021386149096, -0.09, 0.99, 0.084, 192.0, 0.0, 0.0, 0.0, 0.0, 0.0, 0.0, 0.0, 0.0, 0.0, 1.68142093320909E9, 0.0, 2023-04-13 17:22:13.209
102.0, -6034.233395365882, 19192.638300971783, -27795.55652088601, -10323.75667378386, 19795.777773353788, -45701.18137612121, 609.8226439741426, -18284.75514468612, -0.09, 0.99, 0.084, 192.0, 0.0, 0.0, 0.0, 0.0, 0.0, 0.0, 0.0, 0.0, 0.0, 1.6814209332091095E9, 0.0, 2023-04-13 17:22:13.209
103.0, -6050.527817073801, 19190.537236992986, -27772.288354908032, -10379.636034922129, 19636.36513189854, -45687.166832347735, 637.7846762877317, -18248.07593203496, -0.09, 0.99, 0.084, 192.0, 0.0, 0.0, 0.0, 0.0, 0.0, 0.0, 0.0, 0.0, 0.0, 1.68142093320913E9, 0.0, 2023-04-13 17:22:13.209
104.0, -5993.933200112963, 19205.825830200414, -27765.78399727154, -10278.896722662059, 19649.217384960342, -45669.553657716955, 641.1821414449385, -18259.721190896176, -0.09, 0.99, 0.084, 192.0, 0.0, 0.0, 0.0, 0.0, 0.0, 0.0, 0.0, 0.0, 0.0, 1.681420933209149E9, 0.0, 2023-04-13 17:22:13.209
105.0, -5978.331682483159, 19208.999777913068, -27790.057991750004, -10239.580004165175, 19795.01781404231, -45692.91123067275, 618.4280655894358, -18285.04571736404, -0.09, 0.99, 0.084, 192.0, 0.0, 0.0, 0.0, 0.0, 0.0, 0.0, 0.0, 0.0, 0.0, 1.681420933209168E9, 0.0, 2023-04-13 17:22:13.209
106.0, -6025.471511539401, 19189.106725347847, -27800.138628499346, -10320.806243515759, 19790.10043026214, -45713.36307684935, 615.45528357688, -18275.143894570338, -0.09, 0.99, 0.084, 192.0, 0.0, 0.0, 0.0, 0.0, 0.0, 0.0, 0.0, 0.0, 0.0, 1.6814209332091875E9, 0.0, 2023-04-13 17:22:13.209
107.0, -6062.15072419056, 19183.965824123123, -27785.341773669934, -10396.556305474794, 19650.7373035833, -45709.22800412512, 633.0237547187513, -18244.700818622212, -0.09, 0.99, 0.084, 192.0, 0.0, 0.0, 0.0, 0.0, 0.0, 0.0, 0.0, 0.0, 0.0, 1.6814209332092123E9, 0.0, 2023-04-13 17:22:13.209
108.0, -6011.635781721567, 19193.66648121673, -27773.137721197334, -10319.75571152636, 19625.0327974597, -45688.99967539307, 641.3386036561255, -18250.62403090287, -0.088, 0.99, 0.076, 192.0, 253.0, 64.0, 30.0, 240.0, 2.0, 96.0, 0.0, 0.0, 0.0, 1.6814209332092316E9, 0.0, 2023-04-13 17:22:13.209
109.0, -5981.8856098515525, 19203.2330278436, -27793.544863885032, -10247.514873446808, 19783.596072625645, -45699.952030176166, 618.9198039674526, -18280.57536847298, -0.088, 0.99, 0.076, 192.0, 0.0, 0.0, 0.0, 0.0, 0.0, 0.0, 0.0, 0.0, 0.0, 1.6814209332092717E9, 0.0, 2023-04-13 17:22:13.209
110.0, -6034.792188977264, 19182.915292133726, -27806.195951246733, -10316.93939172499, 19825.818517901724, -45723.153140920775, 607.4757108063353, -18275.769743415087, -0.088, 0.99, 0.076, 192.0, 0.0, 0.0, 0.0, 0.0, 0.0, 0.0, 0.0, 0.0, 0.0, 1.6814209332092915E9, 0.0, 2023-04-13 17:22:13.209
111.0, -6073.036023740295, 19179.04844034296, -27785.811160303496, -10399.976122376458, 19682.700298154392, -45718.213405396156, 629.3133651391704, -18240.23046973115, -0.088, 0.99, 0.076, 192.0, 0.0, 0.0, 0.0, 0.0, 0.0, 0.0, 0.0, 0.0, 0.0, 1.681420933209311E9, 0.0, 2023-04-13 17:22:13.209
112.0, -6035.283927355281, 19189.37494628131, -27766.92393623876, -10344.029706004823, 19619.087233434588, -45692.195974850176, 644.2443304353154, -18232.116786493872, -0.088, 0.99, 0.076, 192.0, 0.0, 0.0, 0.0, 0.0, 0.0, 0.0, 0.0, 0.0, 0.0, 1.68142093320933E9, 0.0, 2023-04-13 17:22:13.209
113.0, -5988.054691321217, 19200.46141153114, -27781.854901534905, -10245.145588534546, 19771.369668408595, -45694.65466674026, 623.0772284361396, -18261.174054285773, -0.088, 0.99, 0.076, 192.0, 0.0, 0.0, 0.0, 0.0, 0.0, 0.0, 0.0, 0.0, 0.0, 1.681420933209349E9, 0.0, 2023-04-13 17:22:13.209
114.0, -6020.464720781412, 19196.75102195156, -27797.99286103164, -10293.984150169392, 19848.30437282376, -45715.061809427956, 606.7381032393102, -18263.632746175856, -0.088, 0.99, 0.076, 192.0, 0.0, 0.0, 0.0, 0.0, 0.0, 0.0, 0.0, 0.0, 0.0, 1.681420933209368E9, 0.0, 2023-04-13 17:22:13.209
115.0, -6062.709517801943, 19201.958978409646, -27787.68870683774, -10380.351290744698, 19748.213261152898, -45714.45831232766, 621.4679028353576, -18233.033208016543, -0.088, 0.99, 0.076, 192.0, 0.0, 0.0, 0.0, 0.0, 0.0, 0.0, 0.0, 0.0, 0.0, 1.6814209332093868E9, 0.0, 2023-04-13 17:22:13.209
116.0, -6040.178959390993, 19204.261208088545, -27769.11440719538, -10361.486418424418, 19634.17466094192, -45690.67605622722, 641.807990289687, -18215.576495596946, -0.088, 0.99, 0.076, 192.0, 0.0, 0.0, 0.0, 0.0, 0.0, 0.0, 0.0, 0.0, 0.0, 1.6814209332094057E9, 0.0, 2023-04-13 17:22:13.209
117.0, -5979.113993539095, 19204.37296681082, -27782.50310212411, -10246.062010057212, 19755.20935716741, -45686.47392826962, 624.9100714814748, -18247.047751790018, -0.088, 0.99, 0.076, 192.0, 0.0, 0.0, 0.0, 0.0, 0.0, 0.0, 0.0, 0.0, 0.0, 1.6814209332094245E9, 0.0, 2023-04-13 17:22:13.209
118.0, -6000.9069443830185, 19197.265112074034, -27802.284395967057, -10276.46038251643, 19852.55120427027, -45707.2386988686, 607.2521933617822, -18256.390780972335, -0.09, 0.992, 0.078, 192.0, 253.0, 48.0, 31.0, 0.0, 2.0, 112.0, 0.0, 0.0, 0.0, 1.6814209332094433E9, 0.0, 2023-04-13 17:22:13.209
119.0, -6055.020517709318, 19182.89294038927, -27801.725602355673, -10366.873188838148, 19774.655374843525, -45714.16773964975, 618.5621760561677, -18232.51911789407, -0.09, 0.992, 0.078, 192.0, 0.0, 0.0, 0.0, 0.0, 0.0, 0.0, 0.0, 0.0, 0.0, 1.6814209332094631E9, 0.0, 2023-04-13 17:22:13.209
120.0, -6047.756200761342, 19181.88711188878, -27784.20183470271, -10381.088898311722, 19641.036646489698, -45698.45446329766, 641.2491966783043, -18210.7485187946, -0.09, 0.992, 0.078, 192.0, 0.0, 0.0, 0.0, 0.0, 0.0, 0.0, 0.0, 0.0, 0.0, 1.6814209332094822E9, 0.0, 2023-04-13 17:22:13.209
121.0, -5985.439537219946, 19198.002719641056, -27789.566253371988, -10259.182484052479, 19734.57869703516, -45689.31259981544, 629.358068628081, -18237.79412958552, -0.09, 0.992, 0.078, 192.0, 0.0, 0.0, 0.0, 0.0, 0.0, 0.0, 0.0, 0.0, 0.0, 1.6814209336866012E9, 0.0, 2023-04-13 17:22:13.686
122.0, -6007.210136319415, 19192.213617827132, -27813.326157727977, -10269.151362079545, 19865.224643376427, -45712.80428323797, 605.5758125276343, -18253.03801930404, -0.09, 0.992, 0.078, 192.0, 0.0, 0.0, 0.0, 0.0, 0.0, 0.0, 0.0, 0.0, 0.0, 1.681420933686823E9, 0.0, 2023-04-13 17:22:13.686
123.0, -6057.635671810588, 19175.427457741196, -27813.46026819471, -10361.821694591248, 19824.410358001038, -45725.83535025542, 611.4096178304694, -18235.42484467326, -0.09, 0.992, 0.078, 192.0, 0.0, 0.0, 0.0, 0.0, 0.0, 0.0, 0.0, 0.0, 0.0, 1.6814209336868613E9, 0.0, 2023-04-13 17:22:13.686
124.0, -6061.636634068088, 19184.815190412428, -27790.080343494457, -10405.184078834543, 19669.08808578111, -45711.038495426, 640.5786443446451, -18201.45019310119, -0.09, 0.992, 0.078, 192.0, 0.0, 0.0, 0.0, 0.0, 0.0, 0.0, 0.0, 0.0, 0.0, 1.6814209336869173E9, 0.0, 2023-04-13 17:22:13.686
125.0, -5992.323874512181, 19209.60327501336, -27789.387439416343, -10283.724699464405, 19721.458223039892, -45695.95106791867, 635.325984397648, -18222.21496370017, -0.09, 0.992, 0.078, 192.0, 0.0, 0.0, 0.0, 0.0, 0.0, 0.0, 0.0, 0.0, 0.0, 1.6814209336871607E9, 0.0, 2023-04-13 17:22:13.687
126.0, -5990.759252400309, 19203.255379588056, -27818.332948485968, -10265.373917266597, 19876.244053392897, -45721.47676008663, 606.4698823058466, -18249.238222746637, -0.09, 0.992, 0.078, 192.0, 0.0, 0.0, 0.0, 0.0, 0.0, 0.0, 0.0, 0.0, 0.0, 1.6814209336871996E9, 0.0, 2023-04-13 17:22:13.687
127.0, -6049.074953684206, 19183.11645783382, -27827.765384646107, -10354.602081132183, 19862.83300671971, -45741.03453648502, 603.7876729712096, -18235.067216761974, -0.09, 0.992, 0.078, 192.0, 0.0, 0.0, 0.0, 0.0, 0.0, 0.0, 0.0, 0.0, 0.0, 1.6814209336872392E9, 0.0, 2023-04-13 17:22:13.687
128.0, -6068.990357993885, 19186.156295079745, -27800.093925010435, -10411.800195193315, 19704.09091759812, -45725.52242583304, 635.5942053311117, -18194.297634875493, -0.088, 1.002, 0.08, 192.0, 253.0, 64.0, 31.0, 80.0, 2.0, 128.0, 0.0, 0.0, 0.0, 1.6814209336872904E9, 0.0, 2023-04-13 17:22:13.687
129.0, -6015.94966840144, 19197.3321673074, -27795.64592786383, -10312.267877133832, 19714.48447876984, -45705.45055931217, 637.6058623320893, -18206.41228037027, -0.088, 1.002, 0.08, 192.0, 0.0, 0.0, 0.0, 0.0, 0.0, 0.0, 0.0, 0.0, 0.0, 1.6814209336873322E9, 0.0, 2023-04-13 17:22:13.687
130.0, -5998.269438537292, 19201.243722587078, -27819.159963030812, -10268.637271957074, 19867.750390499878, -45720.11330367486, 612.1472253974945, -18230.17218472626, -0.088, 1.002, 0.08, 192.0, 0.0, 0.0, 0.0, 0.0, 0.0, 0.0, 0.0, 0.0, 0.0, 1.681420933687374E9, 0.0, 2023-04-13 17:22:13.687
131.0, -6050.214892651426, 19176.634451941783, -27841.154079574833, -10351.47283690844, 19892.337309400715, -45744.9460917647, 598.423254301936, -18231.08860624893, -0.088, 1.002, 0.08, 192.0, 0.0, 0.0, 0.0, 0.0, 0.0, 0.0, 0.0, 0.0, 0.0, 1.681420933687412E9, 0.0, 2023-04-13 17:22:13.687
132.0, -6091.207991982459, 19173.304042017942, -27824.010291577615, -10434.554271048817, 19757.712752546402, -45743.73909756412, 615.7458562547989, -18197.94096922171, -0.088, 1.002, 0.08, 192.0, 0.0, 0.0, 0.0, 0.0, 0.0, 0.0, 0.0, 0.0, 0.0, 1.6814209336874495E9, 0.0, 2023-04-13 17:22:13.687
133.0, -6037.697915756455, 19188.32441429191, -27798.663413365295, -10351.629299119628, 19702.81686816417, -45711.01614368155, 634.3648593860697, -18189.98374819562, -0.088, 1.002, 0.08, 192.0, 0.0, 0.0, 0.0, 0.0, 0.0, 0.0, 0.0, 0.0, 0.0, 1.681420933687485E9, 0.0, 2023-04-13 17:22:13.687
134.0, -5994.983732102362, 19197.75685045205, -27816.723622885183, -10271.073612102702, 19869.87380622313, -45718.57103330744, 608.7721119847431, -18217.27522817555, -0.088, 1.002, 0.08, 192.0, 0.0, 0.0, 0.0, 0.0, 0.0, 0.0, 0.0, 0.0, 0.0, 1.6814209336875165E9, 0.0, 2023-04-13 17:22:13.687
135.0, -6035.4180378220135, 19195.409917284243, -27825.217285778202, -10336.541871612295, 19901.680338583035, -45740.43103938473, 600.6137252585561, -18207.66397805977, -0.088, 1.002, 0.08, 192.0, 0.0, 0.0, 0.0, 0.0, 0.0, 0.0, 0.0, 0.0, 0.0, 1.6814209336875544E9, 0.0, 2023-04-13 17:22:13.687
136.0, -6068.543323104778, 19187.31858579142, -27808.297015225533, -10418.796291207826, 19768.978031751878, -45739.89459751781, 618.8974522229972, -18173.465809043148, -0.088, 1.002, 0.08, 192.0, 0.0, 0.0, 0.0, 0.0, 0.0, 0.0, 0.0, 0.0, 0.0, 1.6814209336875896E9, 0.0, 2023-04-13 17:22:13.687
137.0, -6024.085703383173, 19197.220408585123, -27789.11921848288, -10366.917892327057, 19695.865475638566, -45716.157044906264, 633.9848797303296, -18162.669916471234, -0.088, 1.002, 0.08, 192.0, 0.0, 0.0, 0.0, 0.0, 0.0, 0.0, 0.0, 0.0, 0.0, 1.681420933687625E9, 0.0, 2023-04-13 17:22:13.687
138.0, -5974.889513837042, 19209.379757568808, -27810.55454141552, -10264.949234121947, 19856.798035716776, -45724.226024654636, 605.0170189162516, -18196.35399536538, -0.096, 1.0, 0.076, 192.0, 253.0, 0.0, 31.0, 64.0, 2.0, 96.0, 0.0, 0.0, 0.0, 1.6814209336876624E9, 0.0, 2023-04-13 17:22:13.687
139.0, -6009.735883442865, 19199.65674873075, -27828.637102679862, -10316.648819047072, 19924.724987116457, -45747.002452254594, 592.9917803992963, -18192.17421915224, -0.096, 1.0, 0.076, 192.0, 0.0, 0.0, 0.0, 0.0, 0.0, 0.0, 0.0, 0.0, 0.0, 1.6814209336877E9, 0.0, 2023-04-13 17:22:13.687
140.0, -6057.032174710295, 19189.442001514675, -27823.607960177418, -10404.53587824534, 19825.170317312517, -45749.3493854224, 607.9450974398968, -18161.84290192639, -0.096, 1.0, 0.076, 192.0, 0.0, 0.0, 0.0, 0.0, 0.0, 0.0, 0.0, 0.0, 0.0, 1.6814209336878383E9, 0.0, 2023-04-13 17:22:13.687
141.0, -6041.721229758409, 19199.455583030653, -27806.061840780003, -10391.661273439084, 19722.866382940578, -45729.36692587935, 626.4076383599804, -18144.74381741808, -0.096, 1.0, 0.076, 192.0, 0.0, 0.0, 0.0, 0.0, 0.0, 0.0, 0.0, 0.0, 0.0, 1.6814209336878715E9, 0.0, 2023-04-13 17:22:13.687
142.0, -5983.003197074318, 19196.996891140567, -27814.711965884206, -10275.186333082478, 19855.88161419411, -45723.57782406543, 610.6273067745336, -18174.002250910075, -0.096, 1.0, 0.076, 192.0, 0.0, 0.0, 0.0, 0.0, 0.0, 0.0, 0.0, 0.0, 0.0, 1.6814209336879344E9, 0.0, 2023-04-13 17:22:13.687
143.0, -6009.199441575938, 19183.764658423028, -27834.046224838046, -10311.507917822351, 19966.366287036693, -45749.595254611406, 588.3649692970478, -18183.233521370115, -0.096, 1.0, 0.076, 192.0, 0.0, 0.0, 0.0, 0.0, 0.0, 0.0, 0.0, 0.0, 0.0, 1.681420933687973E9, 0.0, 2023-04-13 17:22:13.687
144.0, -6053.00886070834, 19187.810324169437, -27822.244503765643, -10399.618494465172, 19876.154646415074, -45751.964539523666, 601.9101264369639, -18153.103369844364, -0.096, 1.0, 0.076, 192.0, 0.0, 0.0, 0.0, 0.0, 0.0, 0.0, 0.0, 0.0, 0.0, 1.6814209336880085E9, 0.0, 2023-04-13 17:22:13.688
145.0, -6045.5210263158115, 19195.141696350776, -27800.898587810825, -10412.850727182715, 19739.920763959977, -45733.27848115903, 623.8595394920754, -18128.985837577085, -0.096, 1.0, 0.076, 192.0, 0.0, 0.0, 0.0, 0.0, 0.0, 0.0, 0.0, 0.0, 0.0, 1.6814209336880407E9, 0.0, 2023-04-13 17:22:13.688
146.0, -5987.786470387754, 19196.974539396113, -27807.60411114742, -10288.686786733484, 19833.10518659415, -45722.77316126504, 612.2142806308605, -18158.26662281354, -0.096, 1.0, 0.076, 192.0, 0.0, 0.0, 0.0, 0.0, 0.0, 0.0, 0.0, 0.0, 0.0, 1.6814209336880827E9, 0.0, 2023-04-13 17:22:13.688
147.0, -6009.132386342572, 19191.431306771196, -27836.54962021704, -10297.13574613759, 19974.412915040604, -45752.07629824595, 585.0122076287518, -18183.233521370115, -0.096, 1.0, 0.076, 192.0, 0.0, 0.0, 0.0, 0.0, 0.0, 0.0, 0.0, 0.0, 0.0, 1.6814209336881263E9, 0.0, 2023-04-13 17:22:13.688
148.0, -6059.334404389192, 19175.74038216357, -27837.287227784065, -10388.330863515243, 19932.212821508983, -45761.66519661727, 593.1482426104835, -18159.31715480294, -0.094, 0.998, 0.074, 192.0, 253.0, 16.0, 31.0, 48.0, 2.0, 80.0, 0.0, 0.0, 0.0, 1.6814209336881592E9, 0.0, 2023-04-13 17:22:13.688
149.0, -6063.938863746985, 19179.674289187704, -27811.35920421591, -10429.011038423901, 19778.745744078846, -45739.53696960652, 620.842053990609, -18122.570886918413, -0.094, 0.998, 0.074, 192.0, 0.0, 0.0, 0.0, 0.0, 0.0, 0.0, 0.0, 0.0, 0.0, 1.6814209336881957E9, 0.0, 2023-04-13 17:22:13.688
150.0, -5994.201421046427, 19196.415745784732, -27806.374765202378, -10305.405891586053, 19827.606657458145, -45716.89465247329, 618.6292312895335, -18138.373570248314, -0.094, 0.998, 0.074, 192.0, 0.0, 0.0, 0.0, 0.0, 0.0, 0.0, 0.0, 0.0, 0.0, 1.6814209336882427E9, 0.0, 2023-04-13 17:22:13.688
151.0, -5994.559048957712, 19201.690757476183, -27832.526306215088, -10285.624597743106, 19985.700545990534, -45740.52044636255, 588.9684663973411, -18162.78167519351, -0.094, 0.998, 0.074, 192.0, 0.0, 0.0, 0.0, 0.0, 0.0, 0.0, 0.0, 0.0, 0.0, 1.681420933688274E9, 0.0, 2023-04-13 17:22:13.688
152.0, -6037.6532122675435, 19193.17474283871, -27834.35914926042, -10372.639938907616, 19963.929946891065, -45753.81973431346, 590.7342542093104, -18145.79434940748, -0.094, 0.998, 0.074, 192.0, 0.0, 0.0, 0.0, 0.0, 0.0, 0.0, 0.0, 0.0, 0.0, 1.6814209336883135E9, 0.0, 2023-04-13 17:22:13.688
153.0, -6060.608453823144, 19188.83850441438, -27820.232846764666, -10439.315192617798, 19824.45506148995, -45746.24249294311, 610.9402311969079, -18118.525221172004, -0.094, 0.998, 0.074, 192.0, 0.0, 0.0, 0.0, 0.0, 0.0, 0.0, 0.0, 0.0, 0.0, 1.681420933688342E9, 0.0, 2023-04-13 17:22:13.688
154.0, -6006.606639219122, 19198.31564406343, -27808.25231173662, -10336.027781489824, 19820.92348586601, -45722.92962347622, 619.5903563011118, -18125.521317186514, -0.094, 0.998, 0.074, 192.0, 0.0, 0.0, 0.0, 0.0, 0.0, 0.0, 0.0, 0.0, 0.0, 1.6814209336883707E9, 0.0, 2023-04-13 17:22:13.688
155.0, -5993.419109990491, 19198.628568485805, -27830.201724791736, -10279.857847673637, 19980.939624421553, -45738.03940272801, 597.3503705680813, -18153.21512856664, -0.094, 0.998, 0.074, 192.0, 0.0, 0.0, 0.0, 0.0, 0.0, 0.0, 0.0, 0.0, 0.0, 1.6814209336884007E9, 0.0, 2023-04-13 17:22:13.688
156.0, -6045.945709460462, 19183.071754344914, -27839.1200708294, -10359.38535444562, 20005.10186017774, -45758.80417332699, 593.3047048216707, -18145.235555796095, -0.094, 0.998, 0.074, 192.0, 0.0, 0.0, 0.0, 0.0, 0.0, 0.0, 0.0, 0.0, 0.0, 1.6814209336885495E9, 0.0, 2023-04-13 17:22:13.688
157.0, -6083.161363978549, 19180.791876410472, -27814.84607635094, -10433.503739059417, 19858.9885066734, -45748.902350533295, 621.6914202799106, -18106.187058232674, -0.094, 0.998, 0.074, 192.0, 0.0, 0.0, 0.0, 0.0, 0.0, 0.0, 0.0, 0.0, 0.0, 1.6814209336885822E9, 0.0, 2023-04-13 17:22:13.688
158.0, -6035.350982588647, 19197.846257429872, -27796.674108108775, -10354.892653810102, 19814.843811374165, -45721.90144323128, 635.0801152086395, -18106.321168699404, -0.096, 1.0, 0.074, 192.0, 253.0, 0.0, 31.0, 64.0, 2.0, 80.0, 0.0, 0.0, 0.0, 1.681420933688614E9, 0.0, 2023-04-13 17:22:13.688
159.0, -5993.083833823662, 19205.714071478138, -27814.42139320629, -10271.94533013646, 19977.832731942264, -45729.65749855727, 610.4261410744359, -18140.00524759355, -0.096, 1.0, 0.074, 192.0, 0.0, 0.0, 0.0, 0.0, 0.0, 0.0, 0.0, 0.0, 0.0, 1.68142093368865E9, 0.0, 2023-04-13 17:22:13.688
160.0, -6039.5754622907, 19191.2301410711, -27828.190067790758, -10335.491339622897, 20040.149395483662, -45752.43392615723, 595.875155434031, -18141.234593538597, -0.096, 1.0, 0.074, 192.0, 0.0, 0.0, 0.0, 0.0, 0.0, 0.0, 0.0, 0.0, 0.0, 1.6814209336886897E9, 0.0, 2023-04-13 17:22:13.688
161.0, -6079.920361032529, 19184.97165262361, -27817.483582196666, -10422.193756365032, 19916.812469579276, -45755.40670816979, 610.1579201409722, -18110.97033154611, -0.096, 1.0, 0.074, 192.0, 0.0, 0.0, 0.0, 0.0, 0.0, 0.0, 0.0, 0.0, 0.0, 1.681420933688727E9, 0.0, 2023-04-13 17:22:13.688
162.0, -6035.172168633005, 19202.584827254395, -27792.114352239892, -10369.24247375041, 19818.531849209292, -45725.880053744324, 634.0742867081508, -18093.75948831552, -0.096, 1.0, 0.074, 192.0, 0.0, 0.0, 0.0, 0.0, 0.0, 0.0, 0.0, 0.0, 0.0, 1.6814209336887836E9, 0.0, 2023-04-13 17:22:13.688
163.0, -5986.914752353997, 19206.719899978627, -27821.484544454164, -10265.083344588678, 19989.187418125563, -45735.401896882286, 602.9159549374527, -18137.79242489248, -0.096, 1.0, 0.074, 192.0, 0.0, 0.0, 0.0, 0.0, 0.0, 0.0, 0.0, 0.0, 0.0, 1.6814209336888244E9, 0.0, 2023-04-13 17:22:13.688
164.0, -6020.375313803592, 19201.04255688698, -27841.064672597015, -10320.336856882199, 20065.228052762515, -45761.5981413839, 586.487422762802, -18142.24042203908, -0.096, 1.0, 0.074, 192.0, 0.0, 0.0, 0.0, 0.0, 0.0, 0.0, 0.0, 0.0, 0.0, 1.681420933688861E9, 0.0, 2023-04-13 17:22:13.688
165.0, -6078.266331942837, 19194.806420183948, -27835.23086729418, -10411.576677748762, 19949.781292650856, -45766.359062952884, 599.4067310579695, -18113.987817047575, -0.096, 1.0, 0.074, 192.0, 0.0, 0.0, 0.0, 0.0, 0.0, 0.0, 0.0, 0.0, 0.0, 1.6814209336888952E9, 0.0, 2023-04-13 17:22:13.688
166.0, -6053.299433386259, 19204.909408677748, -27811.225093749177, -10396.48925024143, 19829.97594237041, -45740.498094618095, 621.5796615576342, -18092.753659815033, -0.096, 1.0, 0.074, 192.0, 0.0, 0.0, 0.0, 0.0, 0.0, 0.0, 0.0, 0.0, 0.0, 1.681420933688928E9, 0.0, 2023-04-13 17:22:13.688
167.0, -5992.592095445645, 19209.983254669103, -27829.687634669262, -10281.534228507786, 19974.56937725179, -45742.86737953036, 595.6963414783885, -18133.0315033235, -0.096, 1.0, 0.074, 192.0, 0.0, 0.0, 0.0, 0.0, 0.0, 0.0, 0.0, 0.0, 0.0, 1.6814209336889637E9, 0.0, 2023-04-13 17:22:13.688
168.0, -6015.122653856594, 19204.864705188837, -27850.295943057055, -10316.648819047072, 20088.227997807026, -45770.62824614385, 573.165783067439, -18144.944983118177, -0.094, 1.004, 0.074, 192.0, 253.0, 16.0, 31.0, 96.0, 2.0, 80.0, 0.0, 0.0, 0.0, 1.6814209336889992E9, 0.0, 2023-04-13 17:22:13.688
169.0, -6065.458782369946, 19200.975501653615, -27840.79645166355, -10401.987779377436, 20011.382700369682, -45774.22687700116, 587.06856811864, -18118.704035127645, -0.094, 1.004, 0.074, 192.0, 0.0, 0.0, 0.0, 0.0, 0.0, 0.0, 0.0, 0.0, 0.0, 1.6814209336890395E9, 0.0, 2023-04-13 17:22:13.689
170.0, -6060.407288123047, 19209.26799884653, -27818.109431041412, -10420.852651697714, 19870.49965506788, -45752.5009813906, 612.0578184196733, -18091.770183059, -0.094, 1.004, 0.074, 192.0, 0.0, 0.0, 0.0, 0.0, 0.0, 0.0, 0.0, 0.0, 0.0, 1.6814209336890807E9, 0.0, 2023-04-13 17:22:13.689
171.0, -5998.895287382042, 19225.316551365442, -27828.190067790758, -10300.667321761528, 19958.18554856605, -45742.01801324106, 599.8537659470757, -18119.709863628133, -0.094, 1.004, 0.074, 192.0, 0.0, 0.0, 0.0, 0.0, 0.0, 0.0, 0.0, 0.0, 0.0, 1.681420933689218E9, 0.0, 2023-04-13 17:22:13.689
172.0, -6019.347133558647, 19216.867591961338, -27857.269687327112, -10310.457385832953, 20087.646852451187, -45771.94699906671, 570.5506289661681, -18143.11214007284, -0.094, 1.004, 0.074, 192.0, 0.0, 0.0, 0.0, 0.0, 0.0, 0.0, 0.0, 0.0, 0.0, 1.681420933689252E9, 0.0, 2023-04-13 17:22:13.689
173.0, -6078.15457322056, 19190.961920137637, -27860.71185597323, -10400.601971221206, 20052.085227022795, -45784.598086428414, 571.1541260664613, -18127.06358755393, -0.094, 1.004, 0.074, 192.0, 0.0, 0.0, 0.0, 0.0, 0.0, 0.0, 0.0, 0.0, 0.0, 1.6814209336892848E9, 0.0, 2023-04-13 17:22:13.689
174.0, -6093.085538516705, 19190.447830015164, -27836.79548940605, -10446.40069561013, 19905.61424560717, -45766.44846993071, 595.7410449672991, -18091.077278980887, -0.094, 1.004, 0.074, 192.0, 0.0, 0.0, 0.0, 0.0, 0.0, 0.0, 0.0, 0.0, 0.0, 1.6814209336893158E9, 0.0, 2023-04-13 17:22:13.689
175.0, -6022.2752120822925, 19205.401147055763, -27832.772175404094, -10326.103606951667, 19945.80268213781, -45742.12977196334, 594.2658298332489, -18105.561209387924, -0.094, 1.004, 0.074, 192.0, 0.0, 0.0, 0.0, 0.0, 0.0, 0.0, 0.0, 0.0, 0.0, 1.6814209336893473E9, 0.0, 2023-04-13 17:22:13.689
176.0, -6012.418092777502, 19205.736423222592, -27864.93633567528, -10301.628446773106, 20105.796468948898, -45767.67781587575, 562.2134282843385, -18134.752587646555, -0.094, 1.004, 0.074, 192.0, 0.0, 0.0, 0.0, 0.0, 0.0, 0.0, 0.0, 0.0, 0.0, 1.6814209336893854E9, 0.0, 2023-04-13 17:22:13.689
177.0, -6063.223607924415, 19189.062021858936, -27873.89938520186, -10389.113174571177, 20085.188160561105, -45787.57086844098, 558.5253904492129, -18122.995570063063, -0.094, 1.004, 0.074, 192.0, 0.0, 0.0, 0.0, 0.0, 0.0, 0.0, 0.0, 0.0, 0.0, 1.681420933689418E9, 0.0, 2023-04-13 17:22:13.689
178.0, -6086.044739013283, 19189.598463725863, -27851.212364579722, -10456.146056192643, 19932.704559887, -45778.76428112558, 582.7099779498551, -18088.6185870908, -0.092, 1.0, 0.07200000000000001, 192.0, 253.0, 32.0, 31.0, 64.0, 2.0, 64.0, 0.0, 0.0, 0.0, 1.6814209336894553E9, 0.0, 2023-04-13 17:22:13.689
179.0, -6022.0963981266505, 19209.737385480094, -27834.78383240507, -10357.038421277812, 19921.193411492517, -45751.338690678924, 592.5447455101902, -18092.8207150484, -0.092, 1.0, 0.07200000000000001, 192.0, 0.0, 0.0, 0.0, 0.0, 0.0, 0.0, 0.0, 0.0, 0.0, 1.6814209336894925E9, 0.0, 2023-04-13 17:22:13.689
180.0, -6001.5551449722225, 19210.787917469494, -27860.04130363957, -10300.756728739349, 20090.999614119486, -45768.23660948713, 562.2357800287939, -18129.075244554908, -0.092, 1.0, 0.07200000000000001, 192.0, 0.0, 0.0, 0.0, 0.0, 0.0, 0.0, 0.0, 0.0, 0.0, 1.6814209336895304E9, 0.0, 2023-04-13 17:22:13.689
181.0, -6044.068162926217, 19198.51680976353, -27867.864414198928, -10377.356156987687, 20115.11714638676, -45788.06260681899, 558.9277218494084, -18119.575753161404, -0.092, 1.0, 0.07200000000000001, 192.0, 0.0, 0.0, 0.0, 0.0, 0.0, 0.0, 0.0, 0.0, 0.0, 1.6814209336895633E9, 0.0, 2023-04-13 17:22:13.689
182.0, -6074.243017940881, 19191.498362004564, -27852.978152391694, -10451.87687300168, 19988.360403580715, -45781.334731737945, 578.843126159087, -18089.982043502576, -0.092, 1.0, 0.07200000000000001, 192.0, 0.0, 0.0, 0.0, 0.0, 0.0, 0.0, 0.0, 0.0, 0.0, 1.6814209336896133E9, 0.0, 2023-04-13 17:22:13.689
183.0, -6024.577441761189, 19208.2845220905, -27828.41358523531, -10373.869284852659, 19933.464519198482, -45751.91983603476, 595.4057688004696, -18083.522389354992, -0.092, 1.0, 0.07200000000000001, 192.0, 0.0, 0.0, 0.0, 0.0, 0.0, 0.0, 0.0, 0.0, 0.0, 1.6814209336896455E9, 0.0, 2023-04-13 17:22:13.689
184.0, -5995.497822224835, 19214.36419658234, -27854.475719270198, -10287.859772188636, 20097.951006645086, -45761.553437894996, 565.230913785805, -18121.028616550997, -0.092, 1.0, 0.07200000000000001, 192.0, 0.0, 0.0, 0.0, 0.0, 0.0, 0.0, 0.0, 0.0, 0.0, 1.6814209336896787E9, 0.0, 2023-04-13 17:22:13.689
185.0, -6046.772724005309, 19199.835562686392, -27874.257013113143, -10357.776028844837, 20149.04709446992, -45785.246287017624, 551.7751636237101, -18118.234648494083, -0.092, 1.0, 0.07200000000000001, 192.0, 0.0, 0.0, 0.0, 0.0, 0.0, 0.0, 0.0, 0.0, 0.0, 1.6814209336897116E9, 0.0, 2023-04-13 17:22:13.689
186.0, -6089.755128592865, 19199.343824308376, -27860.309524573033, -10441.192739152044, 20011.96384572552, -45777.87021134737, 577.9937598697853, -18076.05690670692, -0.092, 1.0, 0.07200000000000001, 192.0, 0.0, 0.0, 0.0, 0.0, 0.0, 0.0, 0.0, 0.0, 0.0, 1.6814209336897445E9, 0.0, 2023-04-13 17:22:13.689
187.0, -6054.953462475952, 19204.685891233195, -27848.530155245087, -10398.590314220228, 19916.544248645812, -45751.60691161238, 596.2551350897712, -18067.71970602509, -0.092, 1.0, 0.07200000000000001, 192.0, 0.0, 0.0, 0.0, 0.0, 0.0, 0.0, 0.0, 0.0, 0.0, 1.6814209336898885E9, 0.0, 2023-04-13 17:22:13.689
188.0, -6001.041054849751, 19213.51483029304, -27870.792492722572, -10296.599304270661, 20067.552634185868, -45757.351309937396, 572.0928993335842, -18103.951883787144, -0.09, 1.0, 0.076, 192.0, 253.0, 48.0, 31.0, 64.0, 2.0, 96.0, 0.0, 0.0, 0.0, 1.6814209336899216E9, 0.0, 2023-04-13 17:22:13.689
189.0, -6039.933090201985, 19208.686853490693, -27897.90515874686, -10354.378563687631, 20153.51744336098, -45788.73315915265, 548.3106432331375, -18117.608799649333, -0.09, 1.0, 0.076, 192.0, 0.0, 0.0, 0.0, 0.0, 0.0, 0.0, 0.0, 0.0, 0.0, 1.6814209336899543E9, 0.0, 2023-04-13 17:22:13.689
190.0, -6082.3790529226135, 19193.957053894646, -27889.27738538711, -10452.480370101974, 20042.630439118202, -45794.45520573321, 563.2416085292826, -18086.495171367547, -0.09, 1.0, 0.076, 192.0, 0.0, 0.0, 0.0, 0.0, 0.0, 0.0, 0.0, 0.0, 0.0, 1.6814209336899877E9, 0.0, 2023-04-13 17:22:13.689
191.0, -6059.893198000575, 19187.83267591389, -27865.048094397556, -10437.549404805828, 19909.50344914239, -45768.39307169832, 588.0296931302182, -18064.679868779167, -0.09, 1.0, 0.076, 192.0, 0.0, 0.0, 0.0, 0.0, 0.0, 0.0, 0.0, 0.0, 0.0, 1.6814209336900156E9, 0.0, 2023-04-13 17:22:13.690
192.0, -5994.223772790882, 19207.591618012386, -27872.75944623464, -10309.965647454936, 20027.699473822056, -45757.217199470666, 575.1774400684167, -18090.987872003065, -0.09, 1.0, 0.076, 192.0, 0.0, 0.0, 0.0, 0.0, 0.0, 0.0, 0.0, 0.0, 0.0, 1.6814209336900468E9, 0.0, 2023-04-13 17:22:13.690
193.0, -6022.8563574381305, 19195.52167600652, -27900.833237270504, -10337.771217557338, 20152.019876482475, -45783.10051954991, 550.9481490788638, -18107.192886733163, -0.09, 1.0, 0.076, 192.0, 0.0, 0.0, 0.0, 0.0, 0.0, 0.0, 0.0, 0.0, 0.0, 1.6814209336900787E9, 0.0, 2023-04-13 17:22:13.690
194.0, -6070.420869639024, 19188.167952080723, -27891.110228432444, -10433.391980337141, 20064.579852173312, -45790.47659522016, 564.0015678407631, -18079.9684619866, -0.09, 1.0, 0.076, 192.0, 0.0, 0.0, 0.0, 0.0, 0.0, 0.0, 0.0, 0.0, 0.0, 1.6814209336901283E9, 0.0, 2023-04-13 17:22:13.690
195.0, -6064.72117480292, 19191.18543758219, -27869.07140839951, -10456.123704448188, 19922.154536504095, -45772.25992348909, 587.9849896413076, -18057.840234975843, -0.09, 1.0, 0.076, 192.0, 0.0, 0.0, 0.0, 0.0, 0.0, 0.0, 0.0, 0.0, 0.0, 1.6814209336901705E9, 0.0, 2023-04-13 17:22:13.690
196.0, -6003.656208951022, 19201.42253654272, -27877.609774781442, -10338.374714657632, 20006.39826135615, -45759.20650472719, 574.8645156460424, -18087.232778934573, -0.09, 1.0, 0.076, 192.0, 0.0, 0.0, 0.0, 0.0, 0.0, 0.0, 0.0, 0.0, 0.0, 1.6814209336902008E9, 0.0, 2023-04-13 17:22:13.690
197.0, -6015.010895134318, 19200.886094675792, -27902.487266360196, -10343.13563622661, 20132.93148671764, -45781.267676504576, 548.48945718878, -18107.036424521975, -0.09, 1.0, 0.076, 192.0, 0.0, 0.0, 0.0, 0.0, 0.0, 0.0, 0.0, 0.0, 0.0, 1.681420933690231E9, 0.0, 2023-04-13 17:22:13.690
198.0, -6059.714384044932, 19194.739364950583, -27901.503789604165, -10426.462939555997, 20090.731393186023, -45788.531993452554, 554.7032421473554, -18088.126848712785, -0.092, 0.994, 0.078, 192.0, 253.0, 32.0, 31.0, 16.0, 2.0, 112.0, 0.0, 0.0, 0.0, 1.681420933690254E9, 0.0, 2023-04-13 17:22:13.690
199.0, -6076.254674941859, 19189.88903640378, -27883.331821362, -10482.431707672085, 19939.499490201415, -45779.32307473697, 574.1716115679278, -18061.19299664414, -0.092, 0.994, 0.078, 192.0, 0.0, 0.0, 0.0, 0.0, 0.0, 0.0, 0.0, 0.0, 0.0, 1.6814209336902757E9, 0.0, 2023-04-13 17:22:13.690
200.0, -6009.355903787125, 19194.560550994942, -27879.442617826775, -10368.504866183384, 19979.19618835404, -45762.49221116212, 570.9306086219083, -18082.38245038777, -0.092, 0.994, 0.078, 192.0, 0.0, 0.0, 0.0, 0.0, 0.0, 0.0, 0.0, 0.0, 0.0, 1.6814209336902957E9, 0.0, 2023-04-13 17:22:13.690
201.0, -6002.4939182393455, 19201.42253654272, -27898.4863041027, -10335.938374512003, 20139.435844354135, -45779.41248171479, 545.6731373874113, -18107.014072777518, -0.092, 0.994, 0.078, 192.0, 0.0, 0.0, 0.0, 0.0, 0.0, 0.0, 0.0, 0.0, 0.0, 1.6814209336903148E9, 0.0, 2023-04-13 17:22:13.690
202.0, -6059.759087533843, 19191.386603282288, -27901.503789604165, -10417.499890029418, 20131.12099541676, -45791.97416209867, 546.4330966988917, -18092.35132841484, -0.092, 0.994, 0.078, 192.0, 0.0, 0.0, 0.0, 0.0, 0.0, 0.0, 0.0, 0.0, 0.0, 1.681420933690362E9, 0.0, 2023-04-13 17:22:13.690
203.0, -6087.63171286961, 19193.42061202772, -27876.08985615848, -10482.610521627728, 19969.13790334915, -45776.931438080246, 578.5972569700787, -18052.29700235093, -0.092, 0.994, 0.078, 192.0, 0.0, 0.0, 0.0, 0.0, 0.0, 0.0, 0.0, 0.0, 0.0, 1.6814209336903813E9, 0.0, 2023-04-13 17:22:13.690
204.0, -6030.768874975309, 19205.825830200414, -27864.98103916419, -10381.446526223008, 19952.441150241037, -45747.87417028835, 591.9636001543522, -18052.25229886202, -0.092, 0.994, 0.078, 192.0, 0.0, 0.0, 0.0, 0.0, 0.0, 0.0, 0.0, 0.0, 0.0, 1.6814209336904006E9, 0.0, 2023-04-13 17:22:13.690
205.0, -6017.76015970232, 19209.335054079897, -27889.456199342752, -10316.380598113608, 20116.592361520812, -45757.75364133759, 565.2532655302604, -18083.321223654893, -0.092, 0.994, 0.078, 192.0, 0.0, 0.0, 0.0, 0.0, 0.0, 0.0, 0.0, 0.0, 0.0, 1.68142093369042E9, 0.0, 2023-04-13 17:22:13.690
206.0, -6069.3479859051695, 19199.544990008475, -27900.47560935922, -10389.135526315633, 20155.640859084233, -45774.96448456818, 557.3183962486263, -18075.609871817815, -0.092, 0.994, 0.078, 192.0, 0.0, 0.0, 0.0, 0.0, 0.0, 0.0, 0.0, 0.0, 0.0, 1.6814209336904392E9, 0.0, 2023-04-13 17:22:13.690
207.0, -6100.796890353786, 19193.957053894646, -27881.65544052785, -10462.315137662308, 20027.028921488396, -45766.56022865298, 577.2785040472155, -18040.8082057009, -0.092, 0.994, 0.078, 192.0, 0.0, 0.0, 0.0, 0.0, 0.0, 0.0, 0.0, 0.0, 0.0, 1.6814209336904724E9, 0.0, 2023-04-13 17:22:13.690
208.0, -6058.8426660111745, 19199.79085919748, -27872.826501468004, -10401.406634021598, 19976.491627274947, -45747.80711505498, 583.8946204059864, -18046.66436274819, -0.092, 0.996, 0.078, 192.0, 253.0, 32.0, 31.0, 32.0, 2.0, 112.0, 0.0, 0.0, 0.0, 1.6814209336904917E9, 0.0, 2023-04-13 17:22:13.690
209.0, -6019.011857391818, 19213.313664592944, -27890.752600521162, -10309.362150354642, 20129.042283182418, -45751.137524978825, 563.3757189960145, -18074.313470639405, -0.092, 0.996, 0.078, 192.0, 0.0, 0.0, 0.0, 0.0, 0.0, 0.0, 0.0, 0.0, 0.0, 1.6814209336905117E9, 0.0, 2023-04-13 17:22:13.690
210.0, -6067.671605071021, 19193.755888194548, -27907.918740262838, -10370.67298539555, 20194.599949669835, -45774.07041478997, 551.037556056685, -18074.42522936168, -0.092, 0.996, 0.078, 192.0, 0.0, 0.0, 0.0, 0.0, 0.0, 0.0, 0.0, 0.0, 0.0, 1.6814209336905308E9, 0.0, 2023-04-13 17:22:13.690
211.0, -6115.191413783004, 19185.731611935094, -27895.42411511232, -10460.750515550437, 20070.100733053772, -45776.41734795777, 568.9189516209307, -18043.42335980217, -0.092, 0.996, 0.078, 192.0, 0.0, 0.0, 0.0, 0.0, 0.0, 0.0, 0.0, 0.0, 0.0, 1.68142093369055E9, 0.0, 2023-04-13 17:22:13.690
212.0, -6074.779459807809, 19205.37879531131, -27875.687524758283, -10418.840994696737, 19968.802627182322, -45749.97523426715, 588.3873210415031, -18031.196955585117, -0.092, 0.996, 0.078, 192.0, 0.0, 0.0, 0.0, 0.0, 0.0, 0.0, 0.0, 0.0, 0.0, 1.6814209336905692E9, 0.0, 2023-04-13 17:22:13.690
213.0, -6014.787377689765, 19218.834545473404, -27900.252091914666, -10307.976342198413, 20121.241524367517, -45750.82460055645, 563.845105629576, -18071.94418572714, -0.092, 0.996, 0.078, 192.0, 0.0, 0.0, 0.0, 0.0, 0.0, 0.0, 0.0, 0.0, 0.0, 1.6814209336905882E9, 0.0, 2023-04-13 17:22:13.690
214.0, -6055.892235743075, 19204.79764995547, -27929.264656217656, -10359.854741079182, 20215.588237713368, -45779.68070264825, 542.7897623526767, -18081.62249107629, -0.092, 0.996, 0.078, 192.0, 0.0, 0.0, 0.0, 0.0, 0.0, 0.0, 0.0, 0.0, 0.0, 1.6814209336906123E9, 0.0, 2023-04-13 17:22:13.690
215.0, -6097.622942641133, 19193.912350405735, -27918.692281090294, -10449.909919489613, 20118.246390610504, -45779.792461370525, 561.811096884143, -18051.090008150342, -0.092, 0.996, 0.078, 192.0, 0.0, 0.0, 0.0, 0.0, 0.0, 0.0, 0.0, 0.0, 0.0, 1.6814209336906314E9, 0.0, 2023-04-13 17:22:13.690
216.0, -6078.355738920658, 19200.528466764506, -27895.04413545658, -10447.183006666066, 19978.033897642363, -45758.31243494897, 583.6263994725227, -18030.079368362352, -0.092, 0.996, 0.078, 192.0, 0.0, 0.0, 0.0, 0.0, 0.0, 0.0, 0.0, 0.0, 0.0, 1.6814209336906505E9, 0.0, 2023-04-13 17:22:13.690
217.0, -6005.109072340617, 19212.196077370176, -27901.77201053763, -10319.599249315173, 20072.96175634405, -45745.08020223143, 573.5681144676346, -18056.8120547309, -0.092, 0.996, 0.078, 192.0, 0.0, 0.0, 0.0, 0.0, 0.0, 0.0, 0.0, 0.0, 0.0, 1.6814209336906698E9, 0.0, 2023-04-13 17:22:13.690
218.0, -6018.184842846971, 19205.535257522497, -27926.828316072028, -10345.214348460955, 20200.81373462841, -45771.16468801078, 550.2775967452046, -18076.23572066256, -0.096, 1.0, 0.076, 192.0, 253.0, 0.0, 31.0, 64.0, 2.0, 96.0, 0.0, 0.0, 0.0, 1.6814209336907125E9, 0.0, 2023-04-13 17:22:13.690
219.0, -6067.693956815477, 19198.919141163726, -27922.76029858116, -10441.036276940857, 20141.022818210462, -45784.1063480504, 558.2124660268386, -18053.638107018247, -0.096, 1.0, 0.076, 192.0, 0.0, 0.0, 0.0, 0.0, 0.0, 0.0, 0.0, 0.0, 0.0, 1.6814209336907325E9, 0.0, 2023-04-13 17:22:13.690
220.0, -6066.308148659247, 19199.500286519564, -27898.88863550289, -10467.009003997922, 19984.471200045493, -45762.603969884396, 585.2580768177602, -18023.32914153685, -0.096, 1.0, 0.076, 192.0, 0.0, 0.0, 0.0, 0.0, 0.0, 0.0, 0.0, 0.0, 0.0, 1.6814209336907513E9, 0.0, 2023-04-13 17:22:13.690
221.0, -5995.408415247013, 19212.531353537008, -27903.00135648267, -10344.923775783036, 20053.046352034373, -45749.237626700124, 577.4796697473133, -18048.854833704812, -0.096, 1.0, 0.076, 192.0, 0.0, 0.0, 0.0, 0.0, 0.0, 0.0, 0.0, 0.0, 0.0, 1.6814209336907704E9, 0.0, 2023-04-13 17:22:13.690
222.0, -6003.320932784192, 19206.585789511897, -27927.700034105783, -10341.638069348106, 20188.22970250007, -45771.455260688694, 553.8091723691431, -18068.390258358748, -0.096, 1.0, 0.076, 192.0, 0.0, 0.0, 0.0, 0.0, 0.0, 0.0, 0.0, 0.0, 0.0, 1.6814209336907895E9, 0.0, 2023-04-13 17:22:13.690
223.0, -6068.140991704583, 19190.626643970805, -27930.449298673786, -10433.414332081597, 20160.401780653214, -45783.52520269456, 552.6692334019224, -18052.8110924734, -0.096, 1.0, 0.076, 192.0, 0.0, 0.0, 0.0, 0.0, 0.0, 0.0, 0.0, 0.0, 0.0, 1.6814209336908088E9, 0.0, 2023-04-13 17:22:13.690
224.0, -6087.229381469415, 19197.08629811839, -27903.80601928306, -10484.35395769524, 19995.62472052869, -45767.4542984312, 577.6137802140452, -18018.76938566797, -0.096, 1.0, 0.076, 192.0, 0.0, 0.0, 0.0, 0.0, 0.0, 0.0, 0.0, 0.0, 0.0, 1.6814209336908276E9, 0.0, 2023-04-13 17:22:13.690
225.0, -6023.5716132607, 19201.780164454005, -27898.53100759161, -10364.325089970242, 20030.739311067977, -45743.11324871937, 579.06664360364, -18034.77323469797, -0.096, 1.0, 0.076, 192.0, 0.0, 0.0, 0.0, 0.0, 0.0, 0.0, 0.0, 0.0, 0.0, 1.6814209336908464E9, 0.0, 2023-04-13 17:22:13.690
226.0, -6020.978810903885, 19203.45654528815, -27925.82248757154, -10330.350438398176, 20200.85843811732, -45764.43681292973, 551.618701412523, -18064.746924012536, -0.096, 1.0, 0.076, 192.0, 0.0, 0.0, 0.0, 0.0, 0.0, 0.0, 0.0, 0.0, 0.0, 1.6814209336908655E9, 0.0, 2023-04-13 17:22:13.690
227.0, -6078.9145325320405, 19192.124210849313, -27931.00809228517, -10414.214183594488, 20188.073240288883, -45778.98779857014, 554.3456142360704, -18047.71489473759, -0.096, 1.0, 0.076, 192.0, 0.0, 0.0, 0.0, 0.0, 0.0, 0.0, 0.0, 0.0, 0.0, 1.6814209336908846E9, 0.0, 2023-04-13 17:22:13.690
228.0, -6109.603477669177, 19186.715088691126, -27908.32107166303, -10480.084774504277, 20030.739311067977, -45766.515525164075, 583.4028820279697, -18008.778155896445, -0.094, 1.0, 0.074, 192.0, 253.0, 16.0, 31.0, 64.0, 2.0, 80.0, 0.0, 0.0, 0.0, 1.6814209336909034E9, 0.0, 2023-04-13 17:22:13.690
229.0, -6054.953462475952, 19202.540123765484, -27895.24530115668, -10384.687529169027, 20005.14656366665, -45742.174475452244, 590.6001437425786, -18015.640141444223, -0.094, 1.0, 0.074, 192.0, 0.0, 0.0, 0.0, 0.0, 0.0, 0.0, 0.0, 0.0, 0.0, 1.6814209336909235E9, 0.0, 2023-04-13 17:22:13.690
230.0, -6025.516215028312, 19207.56926626793, -27920.52512413563, -10321.90147899407, 20164.939184777642, -45759.36296693837, 557.0725270596179, -18052.85579596231, -0.094, 1.0, 0.074, 192.0, 0.0, 0.0, 0.0, 0.0, 0.0, 0.0, 0.0, 0.0, 0.0, 1.681420933690942E9, 0.0, 2023-04-13 17:22:13.690
231.0, -6066.799887037264, 19191.900693404757, -27932.37154869694, -10393.181192062044, 20201.99837708454, -45781.06651080448, 544.6673088869225, -18049.8606622053, -0.094, 1.0, 0.074, 192.0, 0.0, 0.0, 0.0, 0.0, 0.0, 0.0, 0.0, 0.0, 0.0, 1.681420933690961E9, 0.0, 2023-04-13 17:22:13.690
232.0, -6097.421776941035, 19189.643167214774, -27920.323958435532, -10476.083812246778, 20071.084209809807, -45774.38333921234, 563.263960273738, -18017.04830134491, -0.094, 1.0, 0.074, 192.0, 0.0, 0.0, 0.0, 0.0, 0.0, 0.0, 0.0, 0.0, 0.0, 1.6814209336909795E9, 0.0, 2023-04-13 17:22:13.690
233.0, -6057.814485766231, 19193.17474283871, -27912.567903109542, -10418.572773763273, 19999.603331041733, -45751.65161510129, 571.3552917665592, -18019.57404846836, -0.094, 1.0, 0.074, 192.0, 0.0, 0.0, 0.0, 0.0, 0.0, 0.0, 0.0, 0.0, 0.0, 1.6814209336910207E9, 0.0, 2023-04-13 17:22:13.691
234.0, -6022.699895226943, 19197.55568475195, -27938.71944412225, -10327.109435452156, 20174.28221395996, -45761.53108615054, 543.8849978309868, -18059.337801854348, -0.094, 1.0, 0.074, 192.0, 0.0, 0.0, 0.0, 0.0, 0.0, 0.0, 0.0, 0.0, 0.0, 1.6814209336910448E9, 0.0, 2023-04-13 17:22:13.691
235.0, -6055.981642720895, 19184.435210756685, -27957.29374376461, -10388.554380959795, 20235.615400745322, -45783.54755443902, 533.5137884037243, -18058.108455909307, -0.094, 1.0, 0.074, 192.0, 0.0, 0.0, 0.0, 0.0, 0.0, 0.0, 0.0, 0.0, 0.0, 1.681420933691068E9, 0.0, 2023-04-13 17:22:13.691
236.0, -6088.771651836831, 19184.256396801044, -27944.508545936176, -10475.904998291135, 20105.572951504346, -45782.385263727345, 552.780992124199, -18024.223211315064, -0.094, 1.0, 0.074, 192.0, 0.0, 0.0, 0.0, 0.0, 0.0, 0.0, 0.0, 0.0, 0.0, 1.6814209336910872E9, 0.0, 2023-04-13 17:22:13.691
237.0, -6066.5316661038005, 19196.75102195156, -27924.548438137586, -10440.812759496303, 19989.232121614474, -45757.17249598176, 573.1881348118943, -18009.739280908023, -0.094, 1.0, 0.074, 192.0, 0.0, 0.0, 0.0, 0.0, 0.0, 0.0, 0.0, 0.0, 0.0, 1.681420933691106E9, 0.0, 2023-04-13 17:22:13.691
238.0, -6023.236337093871, 19202.94245516568, -27937.57950515503, -10324.1366534396, 20131.188050650126, -45750.086992989425, 556.200809025861, -18041.14348186773, -0.096, 1.0, 0.07200000000000001, 192.0, 253.0, 0.0, 31.0, 64.0, 2.0, 64.0, 0.0, 0.0, 0.0, 1.6814209336911252E9, 0.0, 2023-04-13 17:22:13.691
239.0, -6061.927206746007, 19202.204847598656, -27952.510470451176, -10360.86056957967, 20245.67368575021, -45767.18607749773, 542.5438931636684, -18047.111397637298, -0.096, 1.0, 0.07200000000000001, 192.0, 0.0, 0.0, 0.0, 0.0, 0.0, 0.0, 0.0, 0.0, 0.0, 1.6814209336911452E9, 0.0, 2023-04-13 17:22:13.691
240.0, -6104.753149122375, 19197.108649862847, -27943.72623488024, -10452.703887546526, 20156.80314979591, -45774.696263634716, 552.1551432794504, -18022.524478736457, -0.096, 1.0, 0.07200000000000001, 192.0, 0.0, 0.0, 0.0, 0.0, 0.0, 0.0, 0.0, 0.0, 0.0, 1.6814209336911645E9, 0.0, 2023-04-13 17:22:13.691
241.0, -6086.737643091398, 19198.3826992968, -27919.22872295722, -10451.519245090396, 20015.38366262718, -45753.707975591184, 572.3834720115033, -18001.93852209312, -0.096, 1.0, 0.07200000000000001, 192.0, 0.0, 0.0, 0.0, 0.0, 0.0, 0.0, 0.0, 0.0, 0.0, 1.6814209341674597E9, 0.0, 2023-04-13 17:22:14.167
242.0, -6018.967153902907, 19206.026995900513, -27931.343368452, -10325.678923807016, 20132.88678322873, -45746.15308596529, 554.4126694694364, -18031.867507918778, -0.096, 1.0, 0.07200000000000001, 192.0, 0.0, 0.0, 0.0, 0.0, 0.0, 0.0, 0.0, 0.0, 0.0, 1.6814209341676576E9, 0.0, 2023-04-13 17:22:14.167
243.0, -6029.427770307991, 19199.94732140867, -27959.215993787766, -10351.38342993062, 20253.6309067763, -45777.46787994717, 526.942375533864, -18050.37475232777, -0.096, 1.0, 0.07200000000000001, 192.0, 0.0, 0.0, 0.0, 0.0, 0.0, 0.0, 0.0, 0.0, 0.0, 1.6814209341676805E9, 0.0, 2023-04-13 17:22:14.167
244.0, -6078.422794154024, 19188.212655569634, -27951.750511139693, -10437.370590850185, 20197.28215900447, -45778.876039847855, 543.3709077085147, -18021.18337406914, -0.096, 1.0, 0.07200000000000001, 192.0, 0.0, 0.0, 0.0, 0.0, 0.0, 0.0, 0.0, 0.0, 0.0, 1.681420934167703E9, 0.0, 2023-04-13 17:22:14.167
245.0, -6078.802773809764, 19195.99106264008, -27922.71559509225, -10462.40454464013, 20050.16297699964, -45756.367833181364, 575.8479924020759, -17985.8452660853, -0.096, 1.0, 0.07200000000000001, 192.0, 0.0, 0.0, 0.0, 0.0, 0.0, 0.0, 0.0, 0.0, 0.0, 1.6814209341677244E9, 0.0, 2023-04-13 17:22:14.167
246.0, -6020.375313803592, 19213.157202381757, -27924.302568948577, -10336.340705912198, 20115.87710569824, -45740.788667296016, 568.360158009548, -18011.795641397912, -0.096, 1.0, 0.07200000000000001, 192.0, 0.0, 0.0, 0.0, 0.0, 0.0, 0.0, 0.0, 0.0, 0.0, 1.6814209341677463E9, 0.0, 2023-04-13 17:22:14.167
247.0, -6042.727058258898, 19207.725728479116, -27949.135357038424, -10329.56812734224, 20261.923403969216, -45763.34157745142, 539.682869873389, -18036.56137425439, -0.096, 1.0, 0.07200000000000001, 192.0, 0.0, 0.0, 0.0, 0.0, 0.0, 0.0, 0.0, 0.0, 0.0, 1.6814209341677678E9, 0.0, 2023-04-13 17:22:14.167
248.0, -6094.560753650756, 19199.94732140867, -27945.58142967003, -10414.102424872211, 20222.42787151669, -45773.556324667494, 544.1755705089057, -18018.344702523318, -0.098, 0.994, 0.07, 192.0, 252.0, 240.0, 31.0, 16.0, 2.0, 48.0, 0.0, 0.0, 0.0, 1.6814209341677892E9, 0.0, 2023-04-13 17:22:14.167
249.0, -6106.027198556328, 19203.09891737687, -27926.33657769401, -10465.846713286248, 20067.97731733052, -45761.08405126144, 564.5380097076904, -17990.874408587744, -0.098, 0.994, 0.07, 192.0, 0.0, 0.0, 0.0, 0.0, 0.0, 0.0, 0.0, 0.0, 0.0, 1.681420934167864E9, 0.0, 2023-04-13 17:22:14.167
250.0, -6036.960308189429, 19216.24174311659, -27928.86232481746, -10355.0938195102, 20099.87325666824, -45744.02967024204, 556.3125677481374, -18014.880182132743, -0.098, 0.994, 0.07, 192.0, 0.0, 0.0, 0.0, 0.0, 0.0, 0.0, 0.0, 0.0, 0.0, 1.681420934167886E9, 0.0, 2023-04-13 17:22:14.167
251.0, -6026.387933062069, 19219.61685652934, -27956.53378445313, -10324.337819139699, 20263.219805147626, -45763.9003710628, 526.3388784335707, -18045.09974063632, -0.098, 0.994, 0.07, 192.0, 0.0, 0.0, 0.0, 0.0, 0.0, 0.0, 0.0, 0.0, 0.0, 1.681420934167908E9, 0.0, 2023-04-13 17:22:14.167
252.0, -6079.406270910057, 19205.9822924116, -27964.24513629021, -10405.094671856723, 20255.754322499553, -45780.19479277072, 525.3777534219925, -18032.33689455234, -0.098, 0.994, 0.07, 192.0, 0.0, 0.0, 0.0, 0.0, 0.0, 0.0, 0.0, 0.0, 0.0, 1.6814209341679296E9, 0.0, 2023-04-13 17:22:14.167
253.0, -6113.939716093507, 19204.484725533097, -27951.214069272766, -10477.156695980633, 20099.560332245866, -45772.61755140037, 547.5730356661124, -17997.08819354632, -0.098, 0.994, 0.07, 192.0, 0.0, 0.0, 0.0, 0.0, 0.0, 0.0, 0.0, 0.0, 0.0, 1.681420934167951E9, 0.0, 2023-04-13 17:22:14.167
254.0, -6057.635671810588, 19218.119289650833, -27933.109156263967, -10375.277444753343, 20068.357296986258, -45737.12298120534, 563.5321812072017, -17991.16498126566, -0.098, 0.994, 0.07, 192.0, 0.0, 0.0, 0.0, 0.0, 0.0, 0.0, 0.0, 0.0, 0.0, 1.6814209341679728E9, 0.0, 2023-04-13 17:22:14.167
255.0, -6028.913680185518, 19215.548839038474, -27960.020656588156, -10304.265952618833, 20256.201357388658, -45749.81877205596, 531.4350761693807, -18025.988999127032, -0.098, 0.994, 0.07, 192.0, 0.0, 0.0, 0.0, 0.0, 0.0, 0.0, 0.0, 0.0, 0.0, 1.6814209341680112E9, 0.0, 2023-04-13 17:22:14.168
0.0, -6082.826087811719, 19205.043519144478, -27970.995363115715, -10378.943130844013, 20289.796029304987, -45769.242437987625, 523.3213929321042, -18020.37871126875, -0.098, 0.994, 0.07, 192.0, 0.0, 0.0, 0.0, 0.0, 0.0, 0.0, 0.0, 0.0, 0.0, 1.6814209341680474E9, 0.0, 2023-04-13 17:22:14.168
1.0, -6123.282745275825, 19205.37879531131, -27951.43758671732, -10458.805913782826, 20160.960574264594, -45759.027690771545, 548.5788641666012, -17984.03477478442, -0.098, 0.994, 0.07, 192.0, 0.0, 0.0, 0.0, 0.0, 0.0, 0.0, 0.0, 0.0, 0.0, 1.6814209341680772E9, 0.0, 2023-04-13 17:22:14.168
2.0, -6073.438355140491, 19213.80540297096, -27932.975045797237, -10394.455241495996, 20094.30767229887, -45729.97042297965, 566.4379079863916, -17978.782114837424, -0.092, 0.996, 0.068, 192.0, 253.0, 32.0, 31.0, 32.0, 2.0, 32.0, 0.0, 0.0, 0.0, 1.6814209341681151E9, 0.0, 2023-04-13 17:22:14.168
3.0, -6026.43263655098, 19225.27184787653, -27956.645543175408, -10300.622618272617, 20253.45209282066, -45737.52531260554, 540.9792710517968, -18015.975417611055, -0.092, 0.996, 0.068, 192.0, 0.0, 0.0, 0.0, 0.0, 0.0, 0.0, 0.0, 0.0, 0.0, 1.681420934168137E9, 0.0, 2023-04-13 17:22:14.168
4.0, -6071.739622561887, 19218.812193728947, -27979.712543453283, -10365.487380681918, 20323.524811688043, -45766.06849027497, 519.5439481191573, -18022.23390605854, -0.092, 0.996, 0.068, 192.0, 0.0, 0.0, 0.0, 0.0, 0.0, 0.0, 0.0, 0.0, 0.0, 1.6814209341681564E9, 0.0, 2023-04-13 17:22:14.168
5.0, -6115.772559138842, 19201.869571431824, -27964.44630199031, -10453.821474769293, 20198.33269099387, -45761.06169951698, 540.1969599958611, -17982.8948358172, -0.092, 0.996, 0.068, 192.0, 0.0, 0.0, 0.0, 0.0, 0.0, 0.0, 0.0, 0.0, 0.0, 1.6814209341681757E9, 0.0, 2023-04-13 17:22:14.168
6.0, -6089.978646037418, 19205.065870888935, -27945.179098269833, -10422.081997642756, 20091.983090875518, -45736.67594631624, 559.1512392939615, -17968.723829832536, -0.092, 0.996, 0.068, 192.0, 0.0, 0.0, 0.0, 0.0, 0.0, 0.0, 0.0, 0.0, 0.0, 1.6814209341681948E9, 0.0, 2023-04-13 17:22:14.168
7.0, -6029.248956352349, 19216.733481494604, -27960.557098455087, -10308.378673598609, 20240.376322314303, -45736.27361491604, 539.2134832398276, -18003.860772116277, -0.092, 0.996, 0.068, 192.0, 0.0, 0.0, 0.0, 0.0, 0.0, 0.0, 0.0, 0.0, 0.0, 1.6814209341682136E9, 0.0, 2023-04-13 17:22:14.168
8.0, -6063.223607924415, 19210.162068624744, -27979.06434286408, -10349.52823514083, 20333.337227503926, -45761.08405126144, 526.4059336669367, -18011.12508906425, -0.092, 0.996, 0.068, 192.0, 0.0, 0.0, 0.0, 0.0, 0.0, 0.0, 0.0, 0.0, 0.0, 1.6814209341682596E9, 0.0, 2023-04-13 17:22:14.168
9.0, -6102.6297333991215, 19192.683004460694, -27973.521110239162, -10438.666992028593, 20253.273278865014, -45767.36489145338, 538.364116950526, -17989.779173109433, -0.092, 0.996, 0.068, 192.0, 0.0, 0.0, 0.0, 0.0, 0.0, 0.0, 0.0, 0.0, 0.0, 1.68142093416828E9, 0.0, 2023-04-13 17:22:14.168
10.0, -6096.72887286292, 19194.359385294843, -27949.761205883173, -10447.07124794379, 20125.84598372531, -45750.48932438962, 556.3349194925928, -17974.155303735173, -0.092, 0.996, 0.068, 192.0, 0.0, 0.0, 0.0, 0.0, 0.0, 0.0, 0.0, 0.0, 0.0, 1.6814209341682992E9, 0.0, 2023-04-13 17:22:14.168
11.0, -6033.495787798856, 19216.107632649855, -27956.265563519668, -10320.560374326751, 20231.636790232278, -45741.705088818686, 539.973442551308, -18006.78885063992, -0.092, 0.996, 0.068, 192.0, 0.0, 0.0, 0.0, 0.0, 0.0, 0.0, 0.0, 0.0, 0.0, 1.6814209341683187E9, 0.0, 2023-04-13 17:22:14.168
12.0, -6056.383974121091, 19207.591618012386, -27984.02643013316, -10337.435941390508, 20369.234129099146, -45769.19773449871, 509.41860788090327, -18028.872374161765, -0.092, 0.998, 0.066, 192.0, 253.0, 32.0, 31.0, 48.0, 2.0, 16.0, 0.0, 0.0, 0.0, 1.6814209341683376E9, 0.0, 2023-04-13 17:22:14.168
13.0, -6110.676361403032, 19194.806420183948, -27980.137226597933, -10424.1607098771, 20315.656997639777, -45773.89160083432, 518.3146021741155, -18003.816068627366, -0.092, 0.998, 0.066, 192.0, 0.0, 0.0, 0.0, 0.0, 0.0, 0.0, 0.0, 0.0, 0.0, 1.6814209341683578E9, 0.0, 2023-04-13 17:22:14.168
14.0, -6112.442149215001, 19201.51194352054, -27953.873926862947, -10455.83313177027, 20157.42899864066, -45753.41740291326, 546.6119106545342, -17973.03771651241, -0.092, 0.998, 0.066, 192.0, 0.0, 0.0, 0.0, 0.0, 0.0, 0.0, 0.0, 0.0, 0.0, 1.6814209341683767E9, 0.0, 2023-04-13 17:22:14.168
15.0, -6047.890311228074, 19215.973522183125, -27953.113967551468, -10333.144406455089, 20215.52118248, -45736.161856193765, 539.4593524288359, -17997.37876622424, -0.092, 0.998, 0.066, 192.0, 0.0, 0.0, 0.0, 0.0, 0.0, 0.0, 0.0, 0.0, 0.0, 1.6814209341683965E9, 0.0, 2023-04-13 17:22:14.168
16.0, -6053.321785130714, 19218.32045535093, -27979.377267286454, -10325.187185429, 20360.181672594746, -45761.64284487282, 510.04445672565186, -18023.642065959226, -0.092, 0.998, 0.066, 192.0, 0.0, 0.0, 0.0, 0.0, 0.0, 0.0, 0.0, 0.0, 0.0, 1.6814209341684153E9, 0.0, 2023-04-13 17:22:14.168
17.0, -6100.886297331607, 19228.021112444534, -27978.77377018616, -10407.218087579977, 20329.045692568507, -45772.48344093364, 516.5041108732356, -18004.486620961026, -0.092, 0.998, 0.066, 192.0, 0.0, 0.0, 0.0, 0.0, 0.0, 0.0, 0.0, 0.0, 0.0, 1.6814209341684341E9, 0.0, 2023-04-13 17:22:14.168
18.0, -6114.856137616174, 19210.296179091478, -27958.701903665296, -10459.029431227378, 20186.933301321664, -45756.45724015919, 541.7839338521879, -17969.908472288666, -0.092, 0.998, 0.066, 192.0, 0.0, 0.0, 0.0, 0.0, 0.0, 0.0, 0.0, 0.0, 0.0, 1.6814209341684527E9, 0.0, 2023-04-13 17:22:14.168
19.0, -6050.594872307167, 19210.050309902468, -27953.024560573645, -10344.968479271947, 20212.10136557834, -45732.250300914086, 542.9238728194085, -17983.967719551056, -0.092, 0.998, 0.066, 192.0, 0.0, 0.0, 0.0, 0.0, 0.0, 0.0, 0.0, 0.0, 0.0, 1.6814209341684716E9, 0.0, 2023-04-13 17:22:14.168
20.0, -6041.073029169206, 19210.27382734702, -27980.360744042486, -10304.444766574476, 20370.485826788645, -45749.796420311504, 512.1231689599954, -18013.092042576318, -0.092, 0.998, 0.066, 192.0, 0.0, 0.0, 0.0, 0.0, 0.0, 0.0, 0.0, 0.0, 0.0, 1.6814209341684906E9, 0.0, 2023-04-13 17:22:14.168
21.0, -6083.63075061211, 19193.24179807208, -27995.179950616355, -10387.503848970397, 20370.619937255375, -45771.79053685553, 500.0532269541296, -18010.923923364153, -0.092, 0.998, 0.066, 192.0, 0.0, 0.0, 0.0, 0.0, 0.0, 0.0, 0.0, 0.0, 0.0, 1.6814209341685095E9, 0.0, 2023-04-13 17:22:14.168
22.0, -6101.646256643088, 19196.192228340176, -27977.142092840924, -10457.129532948677, 20219.85742090433, -45763.430984429244, 524.4836836437802, -17978.491542159503, -0.096, 1.004, 0.066, 192.0, 253.0, 0.0, 31.0, 96.0, 2.0, 16.0, 0.0, 0.0, 0.0, 1.6814209341685328E9, 0.0, 2023-04-13 17:22:14.168
23.0, -6050.0360786957835, 19211.637283758795, -27970.704790437794, -10367.923720827546, 20189.973138567584, -45741.32510916294, 531.1668552359171, -17988.639234142214, -0.096, 1.004, 0.066, 192.0, 0.0, 0.0, 0.0, 0.0, 0.0, 0.0, 0.0, 0.0, 0.0, 1.6814209341685529E9, 0.0, 2023-04-13 17:22:14.168
24.0, -6024.040999894261, 19218.879248962316, -27998.53271228465, -10304.243600874377, 20355.823082425963, -45757.843048315415, 501.6625525549117, -18024.42437701516, -0.096, 1.004, 0.066, 192.0, 0.0, 0.0, 0.0, 0.0, 0.0, 0.0, 0.0, 0.0, 0.0, 1.6814209341685908E9, 0.0, 2023-04-13 17:22:14.168
25.0, -6078.288683687292, 19203.791821454983, -28015.765907259694, -10380.440697722519, 20385.193274640238, -45784.35221723941, 488.2738576261828, -18024.42437701516, -0.096, 1.004, 0.066, 192.0, 0.0, 0.0, 0.0, 0.0, 0.0, 0.0, 0.0, 0.0, 0.0, 1.6814209341686103E9, 0.0, 2023-04-13 17:22:14.168
26.0, -6117.940678351007, 19209.60327501336, -27993.838845949038, -10463.1198004627, 20247.260659606538, -45778.71957763667, 510.1785671923837, -17986.26994922995, -0.096, 1.004, 0.066, 192.0, 0.0, 0.0, 0.0, 0.0, 0.0, 0.0, 0.0, 0.0, 0.0, 1.68142093416863E9, 0.0, 2023-04-13 17:22:14.168
27.0, -6077.864000542641, 19217.09110940589, -27968.38020901444, -10398.858535153691, 20158.591289352335, -45747.38243191033, 533.9161198039199, -17975.161132235662, -0.096, 1.004, 0.066, 192.0, 0.0, 0.0, 0.0, 0.0, 0.0, 0.0, 0.0, 0.0, 0.0, 1.6814209341686487E9, 0.0, 2023-04-13 17:22:14.168
28.0, -6038.837854723675, 19218.767490240036, -27993.570625015574, -10304.51182180784, 20320.954361075685, -45754.78085932504, 507.8539857690318, -18014.61196119928, -0.096, 1.004, 0.066, 192.0, 0.0, 0.0, 0.0, 0.0, 0.0, 0.0, 0.0, 0.0, 0.0, 1.681420934168668E9, 0.0, 2023-04-13 17:22:14.168
29.0, -6075.561770863745, 19210.430289558208, -28003.628910020463, -10360.726459112939, 20376.11846639138, -45771.477612433155, 501.77431127718825, -18011.460365231083, -0.096, 1.004, 0.066, 192.0, 0.0, 0.0, 0.0, 0.0, 0.0, 0.0, 0.0, 0.0, 0.0, 1.6814209341686869E9, 0.0, 2023-04-13 17:22:14.168
30.0, -6115.929021350029, 19200.483763275595, -27992.140113370435, -10446.624213054683, 20263.264508636537, -45770.91881882177, 520.1921487083613, -17981.441972427605, -0.096, 1.004, 0.066, 192.0, 0.0, 0.0, 0.0, 0.0, 0.0, 0.0, 0.0, 0.0, 0.0, 1.6814209341687057E9, 0.0, 2023-04-13 17:22:14.168
31.0, -6081.239113955393, 19205.714071478138, -27972.96231662778, -10420.003285408413, 20153.76331254999, -45749.70701333368, 538.3194134616153, -17968.947347277088, -0.096, 1.004, 0.066, 192.0, 0.0, 0.0, 0.0, 0.0, 0.0, 0.0, 0.0, 0.0, 0.0, 1.6814209341687245E9, 0.0, 2023-04-13 17:22:14.168
32.0, -6038.659040768032, 19214.319493093433, -27989.16733135788, -10303.014254929336, 20287.516151370546, -45748.81294355547, 518.0463812406518, -18004.039586071918, -0.10200000000000001, 1.008, 0.068, 192.0, 252.0, 208.0, 31.0, 128.0, 2.0, 32.0, 0.0, 0.0, 0.0, 1.6814209341687434E9, 0.0, 2023-04-13 17:22:14.168
33.0, -6069.862076027641, 19205.289388333487, -28008.166314144888, -10337.547700112784, 20389.395402597835, -45771.99170255562, 503.56245083361284, -18013.80729839889, -0.10200000000000001, 1.008, 0.068, 192.0, 0.0, 0.0, 0.0, 0.0, 0.0, 0.0, 0.0, 0.0, 0.0, 1.6814209341687632E9, 0.0, 2023-04-13 17:22:14.168
34.0, -6120.488777218911, 19190.492533504075, -28003.852427465015, -10429.815701224292, 20315.992273806605, -45780.53006893755, 512.81607303811, -17990.628539398735, -0.10200000000000001, 1.008, 0.068, 192.0, 0.0, 0.0, 0.0, 0.0, 0.0, 0.0, 0.0, 0.0, 0.0, 1.6814209341687825E9, 0.0, 2023-04-13 17:22:14.168
35.0, -6107.547117179289, 19193.554722494453, -27977.83499691904, -10435.202471638022, 20174.259862215506, -45760.72642335015, 538.6099861395343, -17966.6898210871, -0.10200000000000001, 1.008, 0.068, 192.0, 0.0, 0.0, 0.0, 0.0, 0.0, 0.0, 0.0, 0.0, 0.0, 1.6814209341688013E9, 0.0, 2023-04-13 17:22:14.168
36.0, -6048.203235650449, 19210.162068624744, -27988.183854601844, -10306.434071830998, 20281.4364768787, -45751.31633893446, 523.4331516543808, -18001.17856278164, -0.10200000000000001, 1.008, 0.068, 192.0, 0.0, 0.0, 0.0, 0.0, 0.0, 0.0, 0.0, 0.0, 0.0, 1.681420934168833E9, 0.0, 2023-04-13 17:22:14.168
37.0, -6067.24692192637, 19213.291312848487, -28009.954453701313, -10320.448615604475, 20400.99595797014, -45776.73027238015, 498.06392169760727, -18018.74703392351, -0.10200000000000001, 1.008, 0.068, 192.0, 0.0, 0.0, 0.0, 0.0, 0.0, 0.0, 0.0, 0.0, 0.0, 1.681420934168852E9, 0.0, 2023-04-13 17:22:14.168
38.0, -6116.040780072306, 19205.535257522497, -27999.896168696425, -10402.658331711094, 20347.93291663324, -45782.83229861645, 507.3398956465597, -17995.635330156725, -0.10200000000000001, 1.008, 0.068, 192.0, 0.0, 0.0, 0.0, 0.0, 0.0, 0.0, 0.0, 0.0, 0.0, 1.681420934168871E9, 0.0, 2023-04-13 17:22:14.168
39.0, -6120.399370241091, 19198.31564406343, -27969.2519270482, -10434.844843726736, 20199.450278216635, -45761.195809983714, 534.944300048864, -17962.577100107326, -0.10200000000000001, 1.008, 0.068, 192.0, 0.0, 0.0, 0.0, 0.0, 0.0, 0.0, 0.0, 0.0, 0.0, 1.681420934168909E9, 0.0, 2023-04-13 17:22:14.168
40.0, -6051.690107785476, 19218.342807095385, -27968.000229358702, -10312.42433934502, 20253.027409676008, -45743.11324871937, 528.2834802011824, -17984.861789329265, -0.10200000000000001, 1.008, 0.068, 192.0, 0.0, 0.0, 0.0, 0.0, 0.0, 0.0, 0.0, 0.0, 0.0, 1.6814209341689315E9, 0.0, 2023-04-13 17:22:14.168
41.0, -6045.789247249276, 19229.831603745413, -27988.697944724317, -10287.390385555076, 20388.590739797444, -45760.90523730579, 505.61881132350106, -18002.787888382423, -0.10200000000000001, 1.008, 0.068, 192.0, 0.0, 0.0, 0.0, 0.0, 0.0, 0.0, 0.0, 0.0, 0.0, 1.6814209341689544E9, 0.0, 2023-04-13 17:22:14.168
42.0, -6100.662779887054, 19208.66450174624, -27990.39667730292, -10366.582616160229, 20351.799768424007, -45771.81288859998, 507.6304683244787, -17986.247597485497, -0.094, 1.006, 0.076, 192.0, 253.0, 16.0, 31.0, 112.0, 2.0, 96.0, 0.0, 0.0, 0.0, 1.681420934168978E9, 0.0, 2023-04-13 17:22:14.168
43.0, -6135.486797748423, 19194.202923083656, -27972.44822650531, -10424.92066918858, 20213.37541501229, -45760.48055416114, 526.070657500107, -17959.716076817047, -0.094, 1.006, 0.076, 192.0, 0.0, 0.0, 0.0, 0.0, 0.0, 0.0, 0.0, 0.0, 0.0, 1.681420934169003E9, 0.0, 2023-04-13 17:22:14.169
44.0, -6065.39172713658, 19207.479859290106, -27963.731046167737, -10315.285362635299, 20230.20627858714, -45734.93251024873, 530.5410063911685, -17973.30593744587, -0.094, 1.006, 0.076, 192.0, 0.0, 0.0, 0.0, 0.0, 0.0, 0.0, 0.0, 0.0, 0.0, 1.681420934169022E9, 0.0, 2023-04-13 17:22:14.169
45.0, -6042.302375114247, 19209.022129657526, -27992.54244477063, -10268.547864979251, 20397.37497536838, -45756.948978537206, 501.9307734883754, -18006.095946561807, -0.094, 1.006, 0.076, 192.0, 0.0, 0.0, 0.0, 0.0, 0.0, 0.0, 0.0, 0.0, 0.0, 1.6814209341690447E9, 0.0, 2023-04-13 17:22:14.169
46.0, -6088.72694834792, 19200.304949319954, -27997.057497150603, -10347.270708950844, 20401.510048092612, -45778.63017065885, 499.36032287601506, -17995.210647012074, -0.094, 1.006, 0.076, 192.0, 0.0, 0.0, 0.0, 0.0, 0.0, 0.0, 0.0, 0.0, 0.0, 1.6814209341690643E9, 0.0, 2023-04-13 17:22:14.169
47.0, -6126.210823799471, 19202.02603364301, -27982.126531854457, -10426.261773855898, 20242.879717693297, -45775.41151945729, 517.1746632068948, -17966.712172831558, -0.094, 1.006, 0.076, 192.0, 0.0, 0.0, 0.0, 0.0, 0.0, 0.0, 0.0, 0.0, 0.0, 1.6814209341690836E9, 0.0, 2023-04-13 17:22:14.169
48.0, -6063.625939324611, 19214.699472749173, -27965.0497990906, -10338.95586001347, 20191.068374045895, -45744.90138827579, 532.7091256033332, -17965.102847230773, -0.094, 1.006, 0.076, 192.0, 0.0, 0.0, 0.0, 0.0, 0.0, 0.0, 0.0, 0.0, 0.0, 1.6814209341691027E9, 0.0, 2023-04-13 17:22:14.169
49.0, -6022.766950460309, 19219.57215304043, -27987.69211622383, -10260.143609064056, 20342.79201540852, -45754.557341880485, 506.28936365716027, -18000.61976917026, -0.094, 1.006, 0.076, 192.0, 0.0, 0.0, 0.0, 0.0, 0.0, 0.0, 0.0, 0.0, 0.0, 1.6814209341691217E9, 0.0, 2023-04-13 17:22:14.169
50.0, -6068.6327300826, 19206.831658700903, -27999.002098918212, -10331.222156431933, 20373.79388496803, -45775.83620260194, 499.136805431462, -17999.010443569478, -0.094, 1.006, 0.076, 192.0, 0.0, 0.0, 0.0, 0.0, 0.0, 0.0, 0.0, 0.0, 0.0, 1.6814209341691408E9, 0.0, 2023-04-13 17:22:14.169
51.0, -6108.664704402055, 19195.387565539786, -27989.52495926916, -10417.96927666298, 20245.070188649916, -45774.271580490065, 518.426360896392, -17969.37203042174, -0.094, 1.006, 0.076, 192.0, 0.0, 0.0, 0.0, 0.0, 0.0, 0.0, 0.0, 0.0, 0.0, 1.6814209341691597E9, 0.0, 2023-04-13 17:22:14.169
52.0, -6065.77170679232, 19206.205809856154, -27973.63286896144, -10364.056869036778, 20162.301678931915, -45748.45531564418, 535.748962849255, -17962.755914062967, -0.094, 0.994, 0.076, 192.0, 253.0, 16.0, 31.0, 16.0, 2.0, 96.0, 0.0, 0.0, 0.0, 1.6814209341691787E9, 0.0, 2023-04-13 17:22:14.169
53.0, -6010.09351135415, 19215.951170438668, -27993.123590126466, -10265.977414366891, 20313.332416216424, -45754.132658735834, 513.8889567719647, -17996.819972612855, -0.094, 0.994, 0.076, 192.0, 0.0, 0.0, 0.0, 0.0, 0.0, 0.0, 0.0, 0.0, 0.0, 1.6814209341691988E9, 0.0, 2023-04-13 17:22:14.169
54.0, -6041.810636736231, 19213.51483029304, -28001.0584594081, -10315.642990546583, 20361.008687139594, -45771.477612433155, 508.5915933360569, -17992.75195512199, -0.094, 0.994, 0.076, 192.0, 0.0, 0.0, 0.0, 0.0, 0.0, 0.0, 0.0, 0.0, 0.0, 1.6814209341692193E9, 0.0, 2023-04-13 17:22:14.169
55.0, -6099.96987580894, 19208.575094768417, -27991.02252614767, -10405.362892790186, 20243.34910432686, -45770.091804276926, 525.6236226110009, -17961.012477995453, -0.094, 0.994, 0.076, 192.0, 0.0, 0.0, 0.0, 0.0, 0.0, 0.0, 0.0, 0.0, 0.0, 1.6814209341692605E9, 0.0, 2023-04-13 17:22:14.169
56.0, -6084.30130294577, 19212.55370528146, -27971.084770093534, -10380.373642489152, 20123.74491974651, -45741.705088818686, 547.4612769438359, -17944.181614420606, -0.094, 0.994, 0.076, 192.0, 0.0, 0.0, 0.0, 0.0, 0.0, 0.0, 0.0, 0.0, 0.0, 1.6814209341692798E9, 0.0, 2023-04-13 17:22:14.169
57.0, -6025.404456306035, 19216.66642626124, -27992.02835464816, -10261.909396876026, 20269.00890696155, -45739.20169343969, 524.4613318993249, -17983.61009163977, -0.094, 0.994, 0.076, 192.0, 0.0, 0.0, 0.0, 0.0, 0.0, 0.0, 0.0, 0.0, 0.0, 1.681420934169299E9, 0.0, 2023-04-13 17:22:14.169
58.0, -6043.86699722612, 19221.248533874576, -28003.91948269838, -10294.900571692058, 20365.322573819467, -45759.20650472719, 509.4856631142692, -17990.114449276265, -0.094, 0.994, 0.076, 192.0, 0.0, 0.0, 0.0, 0.0, 0.0, 0.0, 0.0, 0.0, 0.0, 1.6814209341693192E9, 0.0, 2023-04-13 17:22:14.169
59.0, -6086.245904713382, 19215.213562871642, -27989.994345902724, -10378.831372121736, 20270.4841220956, -45759.87705706085, 524.3719249215037, -17961.258347184463, -0.094, 0.994, 0.076, 192.0, 0.0, 0.0, 0.0, 0.0, 0.0, 0.0, 0.0, 0.0, 0.0, 1.6814209341693385E9, 0.0, 2023-04-13 17:22:14.169
60.0, -6085.307131446259, 19203.52360052152, -27968.38020901444, -10390.610741449684, 20122.98496043503, -45742.3979928968, 546.2095792543387, -17940.35946611875, -0.094, 0.994, 0.076, 192.0, 0.0, 0.0, 0.0, 0.0, 0.0, 0.0, 0.0, 0.0, 0.0, 1.6814209341693575E9, 0.0, 2023-04-13 17:22:14.169
61.0, -6026.387933062069, 19208.932722679703, -27981.634793476438, -10270.2242458134, 20219.85742090433, -45737.12298120534, 528.4846459012801, -17976.993975281, -0.094, 0.994, 0.076, 192.0, 0.0, 0.0, 0.0, 0.0, 0.0, 0.0, 0.0, 0.0, 0.0, 1.6814209341693769E9, 0.0, 2023-04-13 17:22:14.169
62.0, -6034.389857577069, 19206.585789511897, -28000.901997196914, -10282.69651921946, 20349.721056189665, -45761.53108615054, 509.08333171407367, -17989.063917286865, -0.088, 0.996, 0.078, 192.0, 253.0, 64.0, 31.0, 32.0, 2.0, 112.0, 0.0, 0.0, 0.0, 1.681420934169396E9, 0.0, 2023-04-13 17:22:14.169
63.0, -6072.052546984261, 19195.119344606323, -27993.078886637555, -10364.727421370439, 20291.07007873894, -45767.141374008825, 520.4827213862802, -17965.70634433107, -0.088, 0.996, 0.078, 192.0, 0.0, 0.0, 0.0, 0.0, 0.0, 0.0, 0.0, 0.0, 0.0, 1.6814209341694164E9, 0.0, 2023-04-13 17:22:14.169
64.0, -6081.887314544597, 19191.073678859913, -27970.21305205978, -10404.334712545242, 20145.26964965697, -45752.322167434955, 539.3028902176488, -17939.84537599628, -0.088, 0.996, 0.078, 192.0, 0.0, 0.0, 0.0, 0.0, 0.0, 0.0, 0.0, 0.0, 0.0, 1.681420934169439E9, 0.0, 2023-04-13 17:22:14.169
65.0, -6009.802938676231, 19217.605199528363, -27958.076054820547, -10277.89089416157, 20173.790475581944, -45725.32126013294, 543.326204219604, -17950.976544735022, -0.088, 0.996, 0.078, 192.0, 0.0, 0.0, 0.0, 0.0, 0.0, 0.0, 0.0, 0.0, 0.0, 1.6814209341694643E9, 0.0, 2023-04-13 17:22:14.169
66.0, -6008.66299970901, 19211.972559925624, -27989.34614531352, -10253.54984444974, 20326.519945445056, -45746.309548176476, 510.42443638139207, -17982.17957999463, -0.088, 0.996, 0.078, 192.0, 0.0, 0.0, 0.0, 0.0, 0.0, 0.0, 0.0, 0.0, 0.0, 1.681420934169484E9, 0.0, 2023-04-13 17:22:14.169
67.0, -6056.696898543465, 19187.47504800261, -28004.813552476593, -10347.114246739657, 20331.660846669776, -45771.09763277741, 501.79666302164355, -17978.715059604056, -0.088, 0.996, 0.078, 192.0, 0.0, 0.0, 0.0, 0.0, 0.0, 0.0, 0.0, 0.0, 0.0, 1.6814209341695037E9, 0.0, 2023-04-13 17:22:14.169
68.0, -6068.520971360323, 19194.292330061475, -27986.86510167898, -10413.655389983105, 20172.09174300334, -45762.939246051224, 526.3388784335707, -17945.388608621193, -0.088, 0.996, 0.078, 192.0, 0.0, 0.0, 0.0, 0.0, 0.0, 0.0, 0.0, 0.0, 0.0, 1.6814209341695228E9, 0.0, 2023-04-13 17:22:14.169
69.0, -6008.215964819904, 19212.061966903446, -27983.467636521775, -10311.686731777994, 20168.113132490296, -45744.90138827579, 529.6469366129562, -17959.716076817047, -0.088, 0.996, 0.078, 192.0, 0.0, 0.0, 0.0, 0.0, 0.0, 0.0, 0.0, 0.0, 0.0, 1.6814209341695418E9, 0.0, 2023-04-13 17:22:14.169
70.0, -5992.6144471901, 19214.587714026897, -28009.954453701313, -10267.989071367869, 20319.143869774805, -45766.89550481981, 500.16498567640616, -17993.623673155747, -0.088, 0.996, 0.078, 192.0, 0.0, 0.0, 0.0, 0.0, 0.0, 0.0, 0.0, 0.0, 0.0, 1.681420934169582E9, 0.0, 2023-04-13 17:22:14.169
71.0, -6041.318898358214, 19204.976463911113, -28014.178933403367, -10346.354287428176, 20317.53454417402, -45785.89448760683, 497.05809319711847, -17982.447800928094, -0.088, 0.996, 0.078, 192.0, 0.0, 0.0, 0.0, 0.0, 0.0, 0.0, 0.0, 0.0, 0.0, 1.6814209341696012E9, 0.0, 2023-04-13 17:22:14.169
72.0, -6072.611340595644, 19205.490554033586, -27996.990441917234, -10416.382302806653, 20163.508673132503, -45776.73027238015, 522.5614336206238, -17948.093169700285, -0.094, 0.998, 0.07200000000000001, 192.0, 253.0, 16.0, 31.0, 48.0, 2.0, 64.0, 0.0, 0.0, 0.0, 1.6814209341696246E9, 0.0, 2023-04-13 17:22:14.169
73.0, -6022.878709182586, 19224.91421996525, -27983.288822566134, -10328.741112797394, 20119.02870166644, -45747.851818543895, 537.4923989167689, -17949.568384834336, -0.094, 0.998, 0.07200000000000001, 192.0, 0.0, 0.0, 0.0, 0.0, 0.0, 0.0, 0.0, 0.0, 0.0, 1.6814209341696465E9, 0.0, 2023-04-13 17:22:14.169
74.0, -5990.915714611497, 19227.08233917741, -28005.77467748817, -10249.325364747687, 20258.928270212207, -45753.707975591184, 514.1795294498837, -17979.005632281976, -0.094, 0.998, 0.07200000000000001, 192.0, 0.0, 0.0, 0.0, 0.0, 0.0, 0.0, 0.0, 0.0, 0.0, 1.6814209341696773E9, 0.0, 2023-04-13 17:22:14.169
75.0, -6031.3723720756025, 19210.407937813754, -28025.377157375475, -10321.23092666041, 20299.69785209869, -45776.88673459134, 498.2427356532497, -17982.067821272354, -0.094, 0.998, 0.07200000000000001, 192.0, 0.0, 0.0, 0.0, 0.0, 0.0, 0.0, 0.0, 0.0, 0.0, 1.6814209341696968E9, 0.0, 2023-04-13 17:22:14.169
76.0, -6071.359642906147, 19196.32633880691, -28010.826171735072, -10403.753567189404, 20172.80699882591, -45772.729310122646, 516.6158695955121, -17950.775379034923, -0.094, 0.998, 0.07200000000000001, 192.0, 0.0, 0.0, 0.0, 0.0, 0.0, 0.0, 0.0, 0.0, 0.0, 1.681420934169716E9, 0.0, 2023-04-13 17:22:14.169
77.0, -6043.107037914639, 19201.08726037589, -27996.54340702813, -10352.702182853483, 20095.31350079936, -45750.82460055645, 528.3058319456377, -17949.41192262315, -0.094, 0.998, 0.07200000000000001, 192.0, 0.0, 0.0, 0.0, 0.0, 0.0, 0.0, 0.0, 0.0, 0.0, 1.6814209341697352E9, 0.0, 2023-04-13 17:22:14.169
78.0, -5996.481298980868, 19213.55953378195, -28011.74259325774, -10252.722829904895, 20238.297610079957, -45754.11030699138, 506.8258055240876, -17981.397268938694, -0.094, 0.998, 0.07200000000000001, 192.0, 0.0, 0.0, 0.0, 0.0, 0.0, 0.0, 0.0, 0.0, 0.0, 1.6814209341697543E9, 0.0, 2023-04-13 17:22:14.169
79.0, -6036.893252956063, 19201.46724003163, -28033.31202665711, -10305.092967163679, 20312.415994693758, -45777.57963866945, 487.71506401480013, -17991.723774877046, -0.094, 0.998, 0.07200000000000001, 192.0, 0.0, 0.0, 0.0, 0.0, 0.0, 0.0, 0.0, 0.0, 0.0, 1.681420934169773E9, 0.0, 2023-04-13 17:22:14.169
80.0, -6080.948541277474, 19194.94053065068, -28022.292616640643, -10393.605875206695, 20215.47647899109, -45777.981970069646, 502.8695467554983, -17961.54891986238, -0.094, 0.998, 0.07200000000000001, 192.0, 0.0, 0.0, 0.0, 0.0, 0.0, 0.0, 0.0, 0.0, 0.0, 1.681420934169792E9, 0.0, 2023-04-13 17:22:14.169
81.0, -6048.404401350546, 19206.541086022986, -27994.73291572725, -10367.968424316457, 20100.432050279625, -45746.91304527677, 529.2222534683053, -17939.21952715153, -0.094, 0.998, 0.07200000000000001, 192.0, 0.0, 0.0, 0.0, 0.0, 0.0, 0.0, 0.0, 0.0, 0.0, 1.6814209341698112E9, 0.0, 2023-04-13 17:22:14.169
82.0, -5990.982769844863, 19212.061966903446, -28009.194494389834, -10247.98426008037, 20229.356912297837, -45738.66525157276, 511.54202360415746, -17974.200007224084, -0.088, 1.006, 0.074, 192.0, 253.0, 64.0, 31.0, 112.0, 2.0, 80.0, 0.0, 0.0, 0.0, 1.6814209341698298E9, 0.0, 2023-04-13 17:22:14.169
83.0, -6040.156607646538, 19195.856952173348, -28037.715320314805, -10284.261141331333, 20347.865861399874, -45766.67198737526, 483.7588052462108, -17991.79083011041, -0.088, 1.006, 0.074, 192.0, 0.0, 0.0, 0.0, 0.0, 0.0, 0.0, 0.0, 0.0, 0.0, 1.68142093416985E9, 0.0, 2023-04-13 17:22:14.169
84.0, -6086.759994835854, 19197.667443474227, -28022.516134085196, -10371.00826156238, 20246.43364506169, -45764.16859199627, 502.266049655205, -17956.564480848847, -0.088, 1.006, 0.074, 192.0, 0.0, 0.0, 0.0, 0.0, 0.0, 0.0, 0.0, 0.0, 0.0, 1.6814209341698692E9, 0.0, 2023-04-13 17:22:14.169
85.0, -6065.123506203116, 19205.535257522497, -27990.53078776965, -10380.284235511332, 20080.047259336385, -45735.75952479357, 532.7314773477885, -17924.914410700134, -0.088, 1.006, 0.074, 192.0, 0.0, 0.0, 0.0, 0.0, 0.0, 0.0, 0.0, 0.0, 0.0, 1.6814209341698923E9, 0.0, 2023-04-13 17:22:14.169
86.0, -5998.157679815016, 19213.76069948205, -27995.87285469447, -10254.578024694685, 20172.98581278155, -45724.494245588096, 519.4992446302467, -17958.26321342745, -0.088, 1.006, 0.074, 192.0, 0.0, 0.0, 0.0, 0.0, 0.0, 0.0, 0.0, 0.0, 0.0, 1.6814209341699417E9, 0.0, 2023-04-13 17:22:14.169
87.0, -6023.750427216342, 19204.842353444383, -28018.202247405323, -10263.652832943539, 20313.466526683158, -45753.84208605791, 491.82778499457663, -17982.693670117103, -0.088, 1.006, 0.074, 192.0, 0.0, 0.0, 0.0, 0.0, 0.0, 0.0, 0.0, 0.0, 0.0, 1.6814209341699617E9, 0.0, 2023-04-13 17:22:14.169
88.0, -6073.05837548475, 19195.789896939983, -28013.01664269169, -10351.539892141807, 20259.554119056957, -45763.67685361825, 500.2543926542274, -17965.393419908694, -0.088, 1.006, 0.074, 192.0, 0.0, 0.0, 0.0, 0.0, 0.0, 0.0, 0.0, 0.0, 0.0, 1.6814209341699805E9, 0.0, 2023-04-13 17:22:14.169
89.0, -6074.265369685337, 19203.858876688348, -27987.200377845813, -10391.303645527798, 20099.180352590127, -45746.77893481004, 529.19990172385, -17933.139852659686, -0.088, 1.006, 0.074, 192.0, 0.0, 0.0, 0.0, 0.0, 0.0, 0.0, 0.0, 0.0, 0.0, 1.6814209341699996E9, 0.0, 2023-04-13 17:22:14.169
90.0, -6004.170299073494, 19223.90839146476, -27983.422933032864, -10270.201894068945, 20145.06848395687, -45724.78481826602, 524.4389801548696, -17955.737466304003, -0.088, 1.006, 0.074, 192.0, 0.0, 0.0, 0.0, 0.0, 0.0, 0.0, 0.0, 0.0, 0.0, 1.6814209341700218E9, 0.0, 2023-04-13 17:22:14.170
91.0, -6001.510441483312, 19220.354464096363, -28009.328604856564, -10250.353544992631, 20295.003985763073, -45741.548626607495, 500.18733742086147, -17979.02798402643, -0.088, 1.006, 0.074, 192.0, 0.0, 0.0, 0.0, 0.0, 0.0, 0.0, 0.0, 0.0, 0.0, 1.681420934170046E9, 0.0, 2023-04-13 17:22:14.170
92.0, -6054.595834564667, 19201.243722587078, -28020.59388406204, -10337.704162323971, 20277.815494276943, -45759.8994088053, 499.6508955539341, -17967.60624260977, -0.08600000000000001, 1.006, 0.076, 192.0, 253.0, 80.0, 31.0, 112.0, 2.0, 96.0, 0.0, 0.0, 0.0, 1.6814209341700733E9, 0.0, 2023-04-13 17:22:14.170
93.0, -6076.232323197404, 19202.338958065386, -28005.573511788072, -10401.361930532687, 20113.574876019346, -45754.31147269148, 523.8354830545763, -17936.760835261444, -0.08600000000000001, 1.006, 0.076, 192.0, 0.0, 0.0, 0.0, 0.0, 0.0, 0.0, 0.0, 0.0, 0.0, 1.6814209341701007E9, 0.0, 2023-04-13 17:22:14.170
94.0, -6016.731979457376, 19218.543972795484, -28003.07011640908, -10300.689673505984, 20106.042338137908, -45733.926681748235, 527.7470383342551, -17950.395399379184, -0.08600000000000001, 1.006, 0.076, 192.0, 0.0, 0.0, 0.0, 0.0, 0.0, 0.0, 0.0, 0.0, 0.0, 1.68142093417012E9, 0.0, 2023-04-13 17:22:14.170
95.0, -6003.455043250924, 19216.912295450245, -28037.335340659065, -10251.739353148861, 20279.35776464436, -45756.948978537206, 494.4429390958475, -17988.92980682013, -0.08600000000000001, 1.006, 0.076, 192.0, 0.0, 0.0, 0.0, 0.0, 0.0, 0.0, 0.0, 0.0, 0.0, 1.681420934170139E9, 0.0, 2023-04-13 17:22:14.170
96.0, -6056.026346209806, 19208.61979825733, -28050.634628609972, -10330.909232009559, 20292.701756084178, -45777.423176458266, 486.0386831806521, -17984.124181762243, -0.08600000000000001, 1.006, 0.076, 192.0, 0.0, 0.0, 0.0, 0.0, 0.0, 0.0, 0.0, 0.0, 0.0, 1.681420934170158E9, 0.0, 2023-04-13 17:22:14.170
97.0, -6084.4354134125015, 19209.335054079897, -28033.580247590573, -10406.480480012951, 20146.49899560201, -45770.67294963276, 507.5410613466575, -17950.70832380156, -0.08600000000000001, 1.006, 0.076, 192.0, 0.0, 0.0, 0.0, 0.0, 0.0, 0.0, 0.0, 0.0, 0.0, 1.6814209341701767E9, 0.0, 2023-04-13 17:22:14.170
98.0, -6029.293659841259, 19222.030844930512, -28018.93985497235, -10329.657534320062, 20092.050146108886, -45745.41547839827, 516.6829248288781, -17950.954192990564, -0.08600000000000001, 1.006, 0.076, 192.0, 0.0, 0.0, 0.0, 0.0, 0.0, 0.0, 0.0, 0.0, 0.0, 1.681420934170196E9, 0.0, 2023-04-13 17:22:14.170
99.0, -5993.933200112963, 19225.115385665344, -28041.49276512775, -10250.46530371491, 20250.501662552557, -45755.98785352562, 485.815165736099, -17987.588702152814, -0.08600000000000001, 1.006, 0.076, 192.0, 0.0, 0.0, 0.0, 0.0, 0.0, 0.0, 0.0, 0.0, 0.0, 1.6814209341702147E9, 0.0, 2023-04-13 17:22:14.170
100.0, -6026.4996917843455, 19214.028920415512, -28050.858146054525, -10314.592458557185, 20289.930139771717, -45772.796365356015, 477.1873923763505, -17982.917187561656, -0.08600000000000001, 1.006, 0.076, 192.0, 0.0, 0.0, 0.0, 0.0, 0.0, 0.0, 0.0, 0.0, 0.0, 1.6814209341702335E9, 0.0, 2023-04-13 17:22:14.170
101.0, -6061.05548871225, 19205.959940667148, -28039.279942426678, -10399.573790976261, 20169.52129239098, -45771.70112987771, 495.26995364069387, -17952.854091269266, -0.08600000000000001, 1.006, 0.076, 192.0, 0.0, 0.0, 0.0, 0.0, 0.0, 0.0, 0.0, 0.0, 0.0, 1.6814209341702728E9, 0.0, 2023-04-13 17:22:14.170
102.0, -6031.037095908773, 19218.543972795484, -28022.471430596284, -10354.512674154363, 20085.188160561105, -45746.10838247638, 514.425398638892, -17942.482881842003, -0.08, 1.0, 0.07200000000000001, 192.0, 253.0, 128.0, 31.0, 64.0, 2.0, 64.0, 0.0, 0.0, 0.0, 1.6814209341702921E9, 0.0, 2023-04-13 17:22:14.170
103.0, -5994.715511168899, 19225.964751954645, -28045.717244829804, -10249.817103125704, 20234.743682711563, -45749.48349588913, 490.06199718260734, -17978.60330088178, -0.08, 1.0, 0.07200000000000001, 192.0, 0.0, 0.0, 0.0, 0.0, 0.0, 0.0, 0.0, 0.0, 0.0, 1.6814209341703124E9, 0.0, 2023-04-13 17:22:14.170
104.0, -6025.292697583759, 19220.354464096363, -28064.13508226098, -10296.129917637101, 20304.302311456482, -45773.48926943413, 473.58876151904605, -17985.21941724055, -0.08, 1.0, 0.07200000000000001, 192.0, 0.0, 0.0, 0.0, 0.0, 0.0, 0.0, 0.0, 0.0, 0.0, 1.681420934170332E9, 0.0, 2023-04-13 17:22:14.170
105.0, -6078.422794154024, 19209.536219779995, -28061.0728932706, -10386.788593147827, 20202.579522440377, -45777.3561212249, 482.7529767457219, -17961.191291951098, -0.08, 1.0, 0.07200000000000001, 192.0, 0.0, 0.0, 0.0, 0.0, 0.0, 0.0, 0.0, 0.0, 0.0, 1.6814209346483307E9, 0.0, 2023-04-13 17:22:14.648
106.0, -6065.861113770141, 19206.272865089522, -28042.811518050614, -10377.065584309768, 20076.605090690267, -45756.61370237037, 500.9249449878866, -17943.89104174269, -0.08, 1.0, 0.07200000000000001, 192.0, 0.0, 0.0, 0.0, 0.0, 0.0, 0.0, 0.0, 0.0, 0.0, 1.68142093464839E9, 0.0, 2023-04-13 17:22:14.648
107.0, -6003.767967673299, 19218.208696628655, -28051.998085021747, -10258.064896829712, 20200.791382883952, -45751.271635445555, 481.83655522305435, -17978.6927078596, -0.08, 1.0, 0.07200000000000001, 192.0, 0.0, 0.0, 0.0, 0.0, 0.0, 0.0, 0.0, 0.0, 0.0, 1.681420934648569E9, 0.0, 2023-04-13 17:22:14.648
108.0, -6024.890366183564, 19209.759737224547, -28063.26336422722, -10285.825763443205, 20302.022433522037, -45771.94699906671, 465.96681665978633, -17986.18054225213, -0.08, 1.0, 0.07200000000000001, 192.0, 0.0, 0.0, 0.0, 0.0, 0.0, 0.0, 0.0, 0.0, 0.0, 1.6814209346485896E9, 0.0, 2023-04-13 17:22:14.648
109.0, -6068.073936471216, 19200.21554234213, -28048.98059952028, -10367.320223727254, 20219.47744124859, -45774.405690956795, 482.82003197908784, -17959.69372507259, -0.08, 1.0, 0.07200000000000001, 192.0, 0.0, 0.0, 0.0, 0.0, 0.0, 0.0, 0.0, 0.0, 0.0, 1.6814209346486092E9, 0.0, 2023-04-13 17:22:14.648
110.0, -6064.542360847278, 19203.0318621435, -28028.506401599217, -10389.359043760187, 20088.943253629597, -45759.74294659412, 503.6742095558894, -17941.521756830425, -0.08, 1.0, 0.07200000000000001, 192.0, 0.0, 0.0, 0.0, 0.0, 0.0, 0.0, 0.0, 0.0, 0.0, 1.681420934648628E9, 0.0, 2023-04-13 17:22:14.648
111.0, -6004.259706051315, 19213.291312848487, -28034.384910390963, -10270.045431857758, 20181.47947567457, -45751.763373823575, 489.07852042657385, -17973.70826884607, -0.08, 1.0, 0.07200000000000001, 192.0, 0.0, 0.0, 0.0, 0.0, 0.0, 0.0, 0.0, 0.0, 0.0, 1.6814209346486473E9, 0.0, 2023-04-13 17:22:14.648
112.0, -6024.778607461287, 19209.156240124255, -28058.03305602468, -10272.727641192394, 20309.845544081396, -45776.68556889124, 466.34679631552655, -17996.08236504583, -0.084, 0.998, 0.074, 192.0, 253.0, 96.0, 31.0, 48.0, 2.0, 80.0, 0.0, 0.0, 0.0, 1.681420934648667E9, 0.0, 2023-04-13 17:22:14.648
113.0, -6077.148744720072, 19209.17859186871, -28056.17786123489, -10356.747848599893, 20261.655183035753, -45786.363874240385, 475.77923247566616, -17972.50127464548, -0.084, 0.998, 0.074, 192.0, 0.0, 0.0, 0.0, 0.0, 0.0, 0.0, 0.0, 0.0, 0.0, 1.6814209346486895E9, 0.0, 2023-04-13 17:22:14.648
114.0, -6082.513163389345, 19217.42638557272, -28037.536506359163, -10401.428985766051, 20101.16965784665, -45768.79540309851, 501.9307734883754, -17940.27005914093, -0.084, 0.998, 0.074, 192.0, 0.0, 0.0, 0.0, 0.0, 0.0, 0.0, 0.0, 0.0, 0.0, 1.6814209346487093E9, 0.0, 2023-04-13 17:22:14.648
115.0, -6010.831118921175, 19223.84133623139, -28039.88343952697, -10288.843248944671, 20132.238582639526, -45754.825562813945, 498.37684611998156, -17963.292355929894, -0.084, 0.998, 0.074, 192.0, 0.0, 0.0, 0.0, 0.0, 0.0, 0.0, 0.0, 0.0, 0.0, 1.681420934648729E9, 0.0, 2023-04-13 17:22:14.648
116.0, -6010.4734910098905, 19217.784013484004, -28070.08064628609, -10263.40696375453, 20287.11381997035, -45780.083034048446, 465.4974300262249, -17996.41764121266, -0.084, 0.998, 0.074, 192.0, 0.0, 0.0, 0.0, 0.0, 0.0, 0.0, 0.0, 0.0, 0.0, 1.681420934648748E9, 0.0, 2023-04-13 17:22:14.648
117.0, -6069.169171949527, 19207.74808022357, -28074.573346921607, -10346.62250836164, 20274.19451167518, -45795.7069034227, 464.4916015257361, -17983.475981173036, -0.084, 0.998, 0.074, 192.0, 0.0, 0.0, 0.0, 0.0, 0.0, 0.0, 0.0, 0.0, 0.0, 1.6814209346488125E9, 0.0, 2023-04-13 17:22:14.648
118.0, -6099.545192664289, 19205.915237178237, -28056.31197170162, -10408.469785269474, 20126.471832570056, -45782.89935384981, 488.1844506483616, -17950.596565079282, -0.084, 0.998, 0.074, 192.0, 0.0, 0.0, 0.0, 0.0, 0.0, 0.0, 0.0, 0.0, 0.0, 1.681420934648832E9, 0.0, 2023-04-13 17:22:14.648
119.0, -6039.083723912683, 19225.361254854353, -28042.878573283982, -10303.03660667379, 20115.184201620126, -45754.49028664712, 496.1416716744509, -17959.157283205663, -0.084, 0.998, 0.074, 192.0, 0.0, 0.0, 0.0, 0.0, 0.0, 0.0, 0.0, 0.0, 0.0, 1.6814209346488516E9, 0.0, 2023-04-13 17:22:14.648
120.0, -6017.447235279946, 19229.317513622944, -28065.565593906118, -10243.536262933763, 20270.551177328965, -45765.889676319326, 470.3477585730265, -17990.56148416537, -0.084, 0.998, 0.074, 192.0, 0.0, 0.0, 0.0, 0.0, 0.0, 0.0, 0.0, 0.0, 0.0, 1.6814209346488707E9, 0.0, 2023-04-13 17:22:14.648
121.0, -6071.851381284164, 19217.202868128166, -28080.451855713352, -10321.208574915956, 20298.4908578981, -45787.45910971869, 461.4070607909037, -17987.834571341824, -0.084, 0.998, 0.074, 192.0, 0.0, 0.0, 0.0, 0.0, 0.0, 0.0, 0.0, 0.0, 0.0, 1.6814209346488924E9, 0.0, 2023-04-13 17:22:14.648
122.0, -6106.16130902306, 19215.70530124966, -28060.51409965922, -10400.11023284319, 20149.762350292487, -45782.76524338308, 487.8938779704426, -17948.808425522857, -0.082, 1.004, 0.07, 192.0, 253.0, 112.0, 31.0, 96.0, 2.0, 48.0, 0.0, 0.0, 0.0, 1.6814209346489117E9, 0.0, 2023-04-13 17:22:14.648
123.0, -6056.696898543465, 19225.070682176432, -28042.319779672598, -10319.822766759726, 20098.4427450231, -45751.71867033466, 505.61881132350106, -17945.701533043568, -0.082, 1.004, 0.07, 192.0, 0.0, 0.0, 0.0, 0.0, 0.0, 0.0, 0.0, 0.0, 0.0, 1.6814209346489325E9, 0.0, 2023-04-13 17:22:14.648
124.0, -6022.297563826748, 19231.083301434912, -28067.957230562835, -10240.854053599127, 20268.517168583534, -45764.03448152953, 476.494488298236, -17986.13583876322, -0.082, 1.004, 0.07, 192.0, 0.0, 0.0, 0.0, 0.0, 0.0, 0.0, 0.0, 0.0, 0.0, 1.6814209346489513E9, 0.0, 2023-04-13 17:22:14.648
125.0, -6064.9446922474735, 19217.001702428068, -28077.70259114535, -10305.60705728615, 20302.98355853362, -45784.553382939506, 469.5654475170908, -17981.08434451632, -0.082, 1.004, 0.07, 192.0, 0.0, 0.0, 0.0, 0.0, 0.0, 0.0, 0.0, 0.0, 0.0, 1.6814209346489704E9, 0.0, 2023-04-13 17:22:14.648
126.0, -6105.580163667222, 19205.714071478138, -28063.531585160687, -10385.022805335857, 20179.22194948458, -45779.74775788162, 489.9278867158755, -17950.93184124611, -0.082, 1.004, 0.07, 192.0, 0.0, 0.0, 0.0, 0.0, 0.0, 0.0, 0.0, 0.0, 0.0, 1.6814209346489897E9, 0.0, 2023-04-13 17:22:14.648
127.0, -6074.958273763451, 19202.65188248776, -28054.03209376718, -10347.04719150629, 20102.890742169708, -45758.55830413799, 502.6683810554005, -17947.512024344447, -0.082, 1.004, 0.07, 192.0, 0.0, 0.0, 0.0, 0.0, 0.0, 0.0, 0.0, 0.0, 0.0, 1.6814209346490223E9, 0.0, 2023-04-13 17:22:14.649
128.0, -6018.363656802614, 19215.034748916, -28066.437311939873, -10242.038696055257, 20240.04104614747, -45752.97036802416, 485.59164829154594, -17976.055202013875, -0.082, 1.004, 0.07, 192.0, 0.0, 0.0, 0.0, 0.0, 0.0, 0.0, 0.0, 0.0, 0.0, 1.6814209346490629E9, 0.0, 2023-04-13 17:22:14.649
129.0, -6058.574445077711, 19202.785992954494, -28090.197216295866, -10291.011368156835, 20324.508288444078, -45779.61364741488, 465.2068573483059, -17986.6946323746, -0.082, 1.004, 0.07, 192.0, 0.0, 0.0, 0.0, 0.0, 0.0, 0.0, 0.0, 0.0, 0.0, 1.6814209346490843E9, 0.0, 2023-04-13 17:22:14.649
130.0, -6111.659838159066, 19182.490608989076, -28082.239995269778, -10383.14525880161, 20220.013883115516, -45784.57573468396, 478.05911041010745, -17959.224338439028, -0.082, 1.004, 0.07, 192.0, 0.0, 0.0, 0.0, 0.0, 0.0, 0.0, 0.0, 0.0, 0.0, 1.6814209346491034E9, 0.0, 2023-04-13 17:22:14.649
131.0, -6091.811489082753, 19192.37008003832, -28050.656980354426, -10367.253168493888, 20079.264948280448, -45753.88678954683, 507.1387299464619, -17931.508175314448, -0.082, 1.004, 0.07, 192.0, 0.0, 0.0, 0.0, 0.0, 0.0, 0.0, 0.0, 0.0, 0.0, 1.6814209346491227E9, 0.0, 2023-04-13 17:22:14.649
132.0, -6022.0963981266505, 19207.61396975684, -28056.468433912807, -10237.523643675286, 20199.830257872374, -45742.97913825264, 490.2631628827051, -17966.019268753444, -0.084, 1.002, 0.066, 192.0, 253.0, 96.0, 31.0, 80.0, 2.0, 16.0, 0.0, 0.0, 0.0, 1.6814209346491678E9, 0.0, 2023-04-13 17:22:14.649
133.0, -6057.345099132669, 19195.745193451072, -28081.390628980476, -10272.928806892493, 20320.3955674643, -45775.34446422392, 462.1446683579288, -17987.65575738618, -0.084, 1.002, 0.066, 192.0, 0.0, 0.0, 0.0, 0.0, 0.0, 0.0, 0.0, 0.0, 0.0, 1.6814209346491885E9, 0.0, 2023-04-13 17:22:14.649
134.0, -6116.532518450323, 19177.953204864647, -28075.22154751081, -10366.649671393594, 20255.68726726619, -45786.74385389613, 468.8948951834316, -17969.260271699462, -0.084, 1.002, 0.066, 192.0, 0.0, 0.0, 0.0, 0.0, 0.0, 0.0, 0.0, 0.0, 0.0, 1.6814209346492076E9, 0.0, 2023-04-13 17:22:14.649
135.0, -6113.000942826384, 19181.909463633237, -28051.081663499077, -10390.029596093846, 20116.525306287447, -45771.879943833344, 494.6664565404006, -17946.37208537723, -0.084, 1.002, 0.066, 192.0, 0.0, 0.0, 0.0, 0.0, 0.0, 0.0, 0.0, 0.0, 0.0, 1.6814209346492264E9, 0.0, 2023-04-13 17:22:14.649
136.0, -6043.174093148004, 19198.1815335967, -28058.301276958144, -10268.324347534699, 20190.822504856886, -45759.76529833857, 483.66939826838956, -17976.636347369713, -0.084, 1.002, 0.066, 192.0, 0.0, 0.0, 0.0, 0.0, 0.0, 0.0, 0.0, 0.0, 0.0, 1.6814209346492453E9, 0.0, 2023-04-13 17:22:14.649
137.0, -6050.728982773899, 19199.701452219662, -28085.860977871536, -10266.916187634015, 20323.16718377676, -45781.82647011596, 459.86479042348753, -17994.56244642287, -0.084, 1.002, 0.066, 192.0, 0.0, 0.0, 0.0, 0.0, 0.0, 0.0, 0.0, 0.0, 0.0, 1.6814209346492643E9, 0.0, 2023-04-13 17:22:14.649
138.0, -6096.974742051929, 19192.213617827132, -28092.164169807933, -10353.305679953775, 20277.413162876746, -45792.04121733204, 462.18937184683944, -17977.262196214462, -0.084, 1.002, 0.066, 192.0, 0.0, 0.0, 0.0, 0.0, 0.0, 0.0, 0.0, 0.0, 0.0, 1.6814209346492836E9, 0.0, 2023-04-13 17:22:14.649
139.0, -6112.956239337474, 19187.85502765835, -28078.84253011257, -10403.127718344656, 20131.188050650126, -45780.26184800409, 480.80837497811024, -17952.295297657885, -0.084, 1.002, 0.066, 192.0, 0.0, 0.0, 0.0, 0.0, 0.0, 0.0, 0.0, 0.0, 0.0, 1.681420934649303E9, 0.0, 2023-04-13 17:22:14.649
140.0, -6050.952500218452, 19203.0318621435, -28079.826006868603, -10292.866562946625, 20159.552414363912, -45761.329920450444, 477.5673720320907, -17969.684954844113, -0.084, 1.002, 0.066, 192.0, 0.0, 0.0, 0.0, 0.0, 0.0, 0.0, 0.0, 0.0, 0.0, 1.6814209346493225E9, 0.0, 2023-04-13 17:22:14.649
141.0, -6037.4743983119015, 19202.04838538747, -28105.351699036564, -10265.619786455607, 20311.231352237624, -45780.77593812656, 447.43722050633676, -17998.272836002452, -0.084, 1.002, 0.066, 192.0, 0.0, 0.0, 0.0, 0.0, 0.0, 0.0, 0.0, 0.0, 0.0, 1.6814209346493413E9, 0.0, 2023-04-13 17:22:14.649
142.0, -6091.118585004639, 19186.245702057568, -28110.939635150393, -10348.567110129252, 20304.77169809004, -45797.42798774577, 446.5655024725798, -17987.432239941627, -0.09, 1.002, 0.07, 192.0, 253.0, 48.0, 31.0, 80.0, 2.0, 48.0, 0.0, 0.0, 0.0, 1.6814209346493602E9, 0.0, 2023-04-13 17:22:14.649
143.0, -6115.705503905476, 19184.815190412428, -28093.237053541787, -10413.498927771918, 20151.03639972644, -45785.805080629005, 470.75008997322203, -17954.083437214307, -0.09, 1.002, 0.07, 192.0, 0.0, 0.0, 0.0, 0.0, 0.0, 0.0, 0.0, 0.0, 0.0, 1.6814209346493804E9, 0.0, 2023-04-13 17:22:14.649
144.0, -6039.933090201985, 19204.730594722103, -28077.45672195634, -10311.61967654463, 20124.41547208017, -45750.82460055645, 483.15530814591745, -17955.581004092815, -0.09, 1.002, 0.07, 192.0, 0.0, 0.0, 0.0, 0.0, 0.0, 0.0, 0.0, 0.0, 0.0, 1.6814209346493995E9, 0.0, 2023-04-13 17:22:14.649
145.0, -6015.368523045603, 19213.537182037497, -28099.808466411647, -10250.040620570258, 20284.5880728469, -45762.53691465103, 460.1330113569512, -17985.979376552034, -0.09, 1.002, 0.07, 192.0, 0.0, 0.0, 0.0, 0.0, 0.0, 0.0, 0.0, 0.0, 0.0, 1.6814209346494186E9, 0.0, 2023-04-13 17:22:14.649
146.0, -6068.766840549331, 19193.353556794355, -28112.347795051075, -10327.824691274725, 20307.87859056933, -45783.39109222783, 453.60630197600153, -17981.50902766097, -0.09, 1.002, 0.07, 192.0, 0.0, 0.0, 0.0, 0.0, 0.0, 0.0, 0.0, 0.0, 0.0, 1.6814209346494377E9, 0.0, 2023-04-13 17:22:14.649
147.0, -6107.748282879386, 19184.859893901335, -28101.909530390447, -10411.755491704404, 20174.75160059352, -45781.67000790477, 471.08536614005163, -17954.999858736977, -0.09, 1.002, 0.07, 192.0, 0.0, 0.0, 0.0, 0.0, 0.0, 0.0, 0.0, 0.0, 0.0, 1.6814209346494565E9, 0.0, 2023-04-13 17:22:14.649
